%OpenBCI Raw EEG Data
%Number of channels = 8
%Sample Rate = 250 Hz
%Board = OpenBCI_GUI$BoardCytonSerial
%Logger = OTTOMH BCIDataLogger
Sample Index, EXG Channel 0, EXG Channel 1, EXG Channel 2, EXG Channel 3, EXG Channel 4, EXG Channel 5, EXG Channel 6, EXG Channel 7, Accel Channel 0, Accel Channel 1, Accel Channel 2, Other, Other, Other, Other, Other, Other, Other, Analog Channel 0, Analog Channel 1, Analog Channel 2, Timestamp, Timestamp (Formatted)
221.000,15002.4902,-30845.1602,17732.5996,15971.3486,26377.6719,24171.1973,30578.8398,22521.1035,0.030,0.994,-0.008,192.000,0.000,0.000,0.000,0.000,0.000,0.000,0.000,0.000,0.000,1602542207.746500,2020-10-12 15:36:47.746497
222.000,15024.9541,-30698.9355,17160.6191,15941.1299,25469.9902,24153.1602,30384.2676,22044.9883,0.030,0.994,-0.008,192.000,0.000,0.000,0.000,0.000,0.000,0.000,0.000,0.000,0.000,1602542207.750640,2020-10-12 15:36:47.750640
223.000,14999.2715,-30746.0313,17046.6250,15731.6709,25345.7148,23806.1270,30265.6699,21990.6504,0.030,0.996,-0.012,192.000,0.000,240.000,31.000,32.000,255.000,160.000,0.000,0.000,0.000,1602542207.754780,2020-10-12 15:36:47.754782
224.000,14969.8125,-30902.3359,17608.7031,15719.9365,26245.8203,23763.5469,30441.5996,22464.3516,0.030,0.996,-0.012,192.000,0.000,0.000,0.000,0.000,0.000,0.000,0.000,0.000,0.000,1602542207.758930,2020-10-12 15:36:47.758925
225.000,14999.7412,-30862.9297,17800.0801,15936.3682,26480.4238,24118.4473,30592.7871,22578.8145,0.030,0.996,-0.012,192.000,0.000,0.000,0.000,0.000,0.000,0.000,0.000,0.000,0.000,1602542207.763070,2020-10-12 15:36:47.763067
226.000,15024.0820,-30717.4863,17264.6660,15964.2861,25615.8359,24197.0586,30434.4473,22130.4160,0.030,0.996,-0.012,192.000,0.000,0.000,0.000,0.000,0.000,0.000,0.000,0.000,0.000,1602542207.767210,2020-10-12 15:36:47.767210
227.000,15000.5908,-30730.7871,17008.8730,15758.8506,25269.9199,23862.0059,30269.1113,21963.4043,0.030,0.996,-0.012,192.000,0.000,0.000,0.000,0.000,0.000,0.000,0.000,0.000,0.000,1602542207.771350,2020-10-12 15:36:47.771352
228.000,14955.4395,-30901.6211,17502.3320,15695.7070,26080.8633,23735.1816,30408.9219,22390.6797,0.030,0.996,-0.012,192.000,0.000,0.000,0.000,0.000,0.000,0.000,0.000,0.000,0.000,1602542207.775500,2020-10-12 15:36:47.775495
229.000,14963.1289,-30916.7754,17832.3770,15896.9404,26548.1270,24063.5078,30599.9609,22618.9805,0.030,0.996,-0.012,192.000,0.000,0.000,0.000,0.000,0.000,0.000,0.000,0.000,0.000,1602542207.779640,2020-10-12 15:36:47.779637
230.000,15008.8828,-30750.8809,17368.8477,15981.2285,25781.9980,24229.2012,30481.5859,22211.5313,0.030,0.996,-0.012,192.000,0.000,0.000,0.000,0.000,0.000,0.000,0.000,0.000,0.000,1602542207.783780,2020-10-12 15:36:47.783780
231.000,15015.0068,-30701.0371,16985.5156,15797.1846,25228.6133,23925.6191,30277.0469,21933.5879,0.030,0.996,-0.012,192.000,0.000,0.000,0.000,0.000,0.000,0.000,0.000,0.000,0.000,1602542207.787920,2020-10-12 15:36:47.787922
232.000,14981.6582,-30841.5176,17380.4023,15686.6553,25890.4043,23711.3770,30355.7012,22284.8672,0.030,0.996,-0.012,192.000,0.000,0.000,0.000,0.000,0.000,0.000,0.000,0.000,0.000,1602542207.792070,2020-10-12 15:36:47.792065
233.000,14969.3652,-30922.0273,17833.3828,15856.9531,26564.5781,23987.1094,30571.7754,22626.0664,0.034,0.996,-0.010,192.000,1.000,16.000,31.000,32.000,255.000,176.000,0.000,0.000,0.000,1602542207.796210,2020-10-12 15:36:47.796207
234.000,15001.0596,-30785.8164,17482.6836,15991.2422,25962.6230,24235.8613,30513.5723,22303.6660,0.034,0.996,-0.010,192.000,0.000,0.000,0.000,0.000,0.000,0.000,0.000,0.000,0.000,1602542207.800350,2020-10-12 15:36:47.800350
235.000,15013.0176,-30700.2773,16999.2832,15834.9590,25242.2031,23991.5352,30300.2246,21938.1016,0.034,0.996,-0.010,192.000,0.000,0.000,0.000,0.000,0.000,0.000,0.000,0.000,0.000,1602542207.804490,2020-10-12 15:36:47.804492
236.000,14973.1875,-30831.5254,17267.1914,15681.9385,25714.9648,23718.3066,30327.3145,22194.2090,0.034,0.996,-0.010,192.000,0.000,0.000,0.000,0.000,0.000,0.000,0.000,0.000,0.000,1602542207.808350,2020-10-12 15:36:47.808351
237.000,14962.0117,-30934.3652,17805.7793,15819.4238,26540.1035,23928.0996,30561.1816,22618.0879,0.034,0.996,-0.010,192.000,0.000,0.000,0.000,0.000,0.000,0.000,0.000,0.000,0.000,1602542207.812210,2020-10-12 15:36:47.812209
238.000,14998.8916,-30807.3867,17576.8086,15993.3203,26130.2832,24231.0781,30557.2480,22393.2500,0.034,0.996,-0.010,192.000,0.000,0.000,0.000,0.000,0.000,0.000,0.000,0.000,0.000,1602542207.816070,2020-10-12 15:36:47.816067
239.000,15013.1748,-30696.6777,17027.8711,15878.9912,25291.3770,24057.5840,30330.5566,21965.7734,0.034,0.996,-0.010,192.000,0.000,0.000,0.000,0.000,0.000,0.000,0.000,0.000,0.000,1602542207.819930,2020-10-12 15:36:47.819926
240.000,14976.0254,-30807.6992,17161.4238,15698.2998,25557.6543,23743.0508,30296.1348,22116.3359,0.034,0.996,-0.010,192.000,0.000,0.000,0.000,0.000,0.000,0.000,0.000,0.000,0.000,1602542207.823780,2020-10-12 15:36:47.823784
241.000,14952.8467,-30938.7480,17745.8984,15783.8848,26472.5996,23866.6992,30525.4180,22588.9844,0.034,0.996,-0.010,192.000,0.000,0.000,0.000,0.000,0.000,0.000,0.000,0.000,0.000,1602542207.827640,2020-10-12 15:36:47.827642
242.000,14985.8379,-30845.9434,17676.8770,15985.9219,26292.8477,24213.9336,30587.0430,22481.8750,0.034,0.996,-0.010,192.000,0.000,0.000,0.000,0.000,0.000,0.000,0.000,0.000,0.000,1602542207.831500,2020-10-12 15:36:47.831501
243.000,15001.0596,-30714.9609,17102.2793,15914.3525,25393.7266,24126.6055,30373.8066,22020.4023,0.036,0.996,-0.010,192.000,1.000,32.000,31.000,32.000,255.000,176.000,0.000,0.000,0.000,1602542207.835360,2020-10-12 15:36:47.835359
244.000,14975.0869,-30782.7324,17088.7793,15714.3936,25426.6289,23791.0391,30289.3613,22049.1230,0.036,0.996,-0.010,192.000,0.000,0.000,0.000,0.000,0.000,0.000,0.000,0.000,0.000,1602542207.839220,2020-10-12 15:36:47.839218
245.000,14945.1807,-30935.8418,17680.5195,15744.2998,26360.0586,23819.0469,30497.2559,22535.6758,0.036,0.996,-0.010,192.000,0.000,0.000,0.000,0.000,0.000,0.000,0.000,0.000,0.000,1602542207.843080,2020-10-12 15:36:47.843076
246.000,14981.6143,-30866.6621,17761.4336,15957.9160,26421.7285,24169.7441,30601.0352,22549.8691,0.036,0.996,-0.010,192.000,0.000,0.000,0.000,0.000,0.000,0.000,0.000,0.000,0.000,1602542207.846930,2020-10-12 15:36:47.846934
247.000,15012.0791,-30710.4238,17194.3242,15951.2549,25516.9297,24179.3125,30413.3477,22078.0918,0.036,0.996,-0.010,192.000,0.000,0.000,0.000,0.000,0.000,0.000,0.000,0.000,0.000,1602542207.850790,2020-10-12 15:36:47.850793
248.000,14979.6025,-30756.5137,17032.2070,15744.6572,25322.0449,23839.3418,30282.2090,21990.0469,0.036,0.996,-0.010,192.000,0.000,0.000,0.000,0.000,0.000,0.000,0.000,0.000,0.000,1602542207.854650,2020-10-12 15:36:47.854651
249.000,14951.5508,-30910.7637,17576.1367,15719.2881,26204.6934,23768.4414,30448.3730,22452.6387,0.036,0.996,-0.010,192.000,0.000,0.000,0.000,0.000,0.000,0.000,0.000,0.000,0.000,1602542207.858510,2020-10-12 15:36:47.858509
250.000,14969.7002,-30901.6211,17808.6621,15925.1924,26514.0410,24111.4746,30605.7734,22602.4414,0.036,0.996,-0.010,192.000,0.000,0.000,0.000,0.000,0.000,0.000,0.000,0.000,0.000,1602542207.862370,2020-10-12 15:36:47.862368
251.000,14997.2148,-30748.3770,17286.0781,15963.7051,25671.2910,24214.9629,30454.1172,22157.4844,0.036,0.996,-0.010,192.000,0.000,0.000,0.000,0.000,0.000,0.000,0.000,0.000,0.000,1602542207.866330,2020-10-12 15:36:47.866329
252.000,14973.9697,-30752.5801,16983.8379,15759.7900,25257.4258,23890.5039,30275.8398,21952.9668,0.036,0.996,-0.010,192.000,0.000,0.000,0.000,0.000,0.000,0.000,0.000,0.000,0.000,1602542207.870290,2020-10-12 15:36:47.870290
253.000,14944.5547,-30897.9102,17450.8105,15685.6270,26028.9629,23736.8594,30395.2207,22359.0078,0.032,0.996,-0.006,192.000,1.000,0.000,31.000,32.000,255.000,208.000,0.000,0.000,0.000,1602542207.874250,2020-10-12 15:36:47.874252
254.000,14954.7471,-30924.7324,17822.5195,15886.5908,26566.7461,24055.2363,30599.7168,22626.2461,0.032,0.996,-0.006,192.000,0.000,0.000,0.000,0.000,0.000,0.000,0.000,0.000,0.000,1602542207.878210,2020-10-12 15:36:47.878213
255.000,15005.7988,-30756.8496,17389.9023,15990.2813,25842.5273,24248.9141,30503.3125,22240.0742,0.032,0.996,-0.006,192.000,0.000,0.000,0.000,0.000,0.000,0.000,0.000,0.000,0.000,1602542207.882180,2020-10-12 15:36:47.882175
0.000,14987.5596,-30728.0820,16975.6133,15806.3037,25235.2754,23965.9648,30301.1406,21933.6543,0.032,0.996,-0.006,192.000,0.000,0.000,0.000,0.000,0.000,0.000,0.000,0.000,0.000,1602542207.886140,2020-10-12 15:36:47.886136
1.000,14951.7070,-30867.4004,17335.3203,15682.4746,25848.2266,23735.9648,30364.5078,22259.7441,0.032,0.996,-0.006,192.000,0.000,0.000,0.000,0.000,0.000,0.000,0.000,0.000,0.000,1602542207.890100,2020-10-12 15:36:47.890098
2.000,14942.5879,-30940.2227,17823.8613,15846.8496,26579.5977,23993.0313,30589.9922,22640.7969,0.032,0.996,-0.006,192.000,0.000,0.000,0.000,0.000,0.000,0.000,0.000,0.000,0.000,1602542207.894060,2020-10-12 15:36:47.894059
3.000,15000.6572,-30781.1895,17503.7402,15997.7236,26023.6211,24252.0898,30540.9082,22341.1484,0.032,0.996,-0.006,192.000,0.000,0.000,0.000,0.000,0.000,0.000,0.000,0.000,0.000,1602542207.898020,2020-10-12 15:36:47.898021
4.000,15011.7441,-30698.4883,16990.7676,15848.7725,25252.7324,24025.0840,30316.8770,21947.1992,0.032,0.996,-0.006,192.000,0.000,0.000,0.000,0.000,0.000,0.000,0.000,0.000,0.000,1602542207.901980,2020-10-12 15:36:47.901982
5.000,14960.6924,-30834.2520,17221.4141,15684.9561,25667.4688,23741.5078,30329.7969,22176.8633,0.032,0.996,-0.006,192.000,0.000,0.000,0.000,0.000,0.000,0.000,0.000,0.000,0.000,1602542207.905940,2020-10-12 15:36:47.905944
6.000,14951.6846,-30933.2930,17783.4043,15808.6953,26530.6484,23922.3555,30561.4727,22620.4785,0.032,0.996,-0.006,192.000,0.000,0.000,0.000,0.000,0.000,0.000,0.000,0.000,0.000,1602542207.909910,2020-10-12 15:36:47.909905
7.000,14997.0361,-30810.1797,17603.4277,15989.6328,26184.1504,24234.1855,30570.9043,22421.1465,0.034,0.990,0.000,192.000,1.000,16.000,30.000,240.000,0.000,0.000,0.000,0.000,0.000,1602542207.913870,2020-10-12 15:36:47.913866
8.000,15007.5869,-30691.6035,17042.5566,15884.6689,25317.4844,24086.5293,30348.4824,21976.4355,0.034,0.990,0.000,192.000,0.000,0.000,0.000,0.000,0.000,0.000,0.000,0.000,0.000,1602542207.917830,2020-10-12 15:36:47.917828
9.000,14982.0166,-30776.7637,17131.0254,15699.8643,25511.6543,23760.3281,30294.5020,22089.5586,0.034,0.990,0.000,192.000,0.000,0.000,0.000,0.000,0.000,0.000,0.000,0.000,0.000,1602542207.921790,2020-10-12 15:36:47.921789
10.000,14945.4482,-30937.9434,17727.4805,15769.2002,26445.7109,23856.9551,30521.2168,22575.9766,0.034,0.990,0.000,192.000,0.000,0.000,0.000,0.000,0.000,0.000,0.000,0.000,0.000,1602542207.925810,2020-10-12 15:36:47.925805
11.000,14980.8760,-30847.4395,17698.8262,15975.8193,26340.7695,24210.8730,30596.8105,22505.6582,0.034,0.990,0.000,192.000,0.000,0.000,0.000,0.000,0.000,0.000,0.000,0.000,0.000,1602542207.929820,2020-10-12 15:36:47.929820
12.000,15013.6885,-30696.8340,17114.2598,15926.5342,25424.8184,24149.9863,30382.7930,22031.0859,0.034,0.990,0.000,192.000,0.000,0.000,0.000,0.000,0.000,0.000,0.000,0.000,0.000,1602542207.933840,2020-10-12 15:36:47.933835
13.000,14978.4844,-30768.7617,17053.9551,15720.1826,25387.2441,23806.6406,30280.5547,22023.7539,0.034,0.990,0.000,192.000,0.000,0.000,0.000,0.000,0.000,0.000,0.000,0.000,0.000,1602542207.937850,2020-10-12 15:36:47.937850
14.000,14954.8359,-30915.9043,17639.1699,15738.3994,26316.1152,23804.8535,30476.3789,22508.5410,0.034,0.990,0.000,192.000,0.000,0.000,0.000,0.000,0.000,0.000,0.000,0.000,0.000,1602542207.941870,2020-10-12 15:36:47.941866
15.000,14979.8701,-30870.0605,17771.5801,15953.9814,26460.4180,24159.4863,30599.2012,22566.1191,0.034,0.990,0.000,192.000,0.000,0.000,0.000,0.000,0.000,0.000,0.000,0.000,0.000,1602542207.945880,2020-10-12 15:36:47.945881
16.000,15005.3516,-30718.2695,17215.4473,15959.2793,25567.4883,24200.5449,30428.7930,22102.5879,0.038,0.992,-0.006,192.000,1.000,48.000,31.000,0.000,255.000,208.000,0.000,0.000,0.000,1602542207.949900,2020-10-12 15:36:47.949896
17.000,14986.7998,-30739.6152,17008.4258,15750.3799,25298.5078,23858.1621,30276.4648,21974.9160,0.038,0.992,-0.006,192.000,0.000,0.000,0.000,0.000,0.000,0.000,0.000,0.000,0.000,1602542207.953910,2020-10-12 15:36:47.953912
18.000,14949.1143,-30904.1914,17536.5977,15707.9785,26156.8145,23761.5566,30431.9219,22427.2480,0.038,0.992,-0.006,192.000,0.000,0.000,0.000,0.000,0.000,0.000,0.000,0.000,0.000,1602542207.957930,2020-10-12 15:36:47.957927
19.000,14975.0645,-30883.2246,17818.6309,15918.0400,26540.9961,24099.0684,30607.8965,22611.5371,0.038,0.992,-0.006,192.000,0.000,0.000,0.000,0.000,0.000,0.000,0.000,0.000,0.000,1602542207.961940,2020-10-12 15:36:47.961942
20.000,15017.6445,-30712.5469,17316.3652,15977.4961,25718.3848,24220.4395,30458.6992,22173.0410,0.038,0.992,-0.006,192.000,0.000,0.000,0.000,0.000,0.000,0.000,0.000,0.000,0.000,1602542207.965960,2020-10-12 15:36:47.965957
21.000,14991.7168,-30723.0742,16974.1816,15779.1240,25236.5273,23903.2676,30266.7422,21932.8945,0.038,0.992,-0.006,192.000,0.000,0.000,0.000,0.000,0.000,0.000,0.000,0.000,0.000,1602542207.969970,2020-10-12 15:36:47.969973
22.000,14939.1455,-30891.2715,17416.3438,15685.2471,25973.1953,23731.5605,30380.3555,22324.8984,0.038,0.992,-0.006,192.000,0.000,0.000,0.000,0.000,0.000,0.000,0.000,0.000,0.000,1602542207.973990,2020-10-12 15:36:47.973988
23.000,14964.4033,-30909.9590,17827.1699,15870.6992,26575.4863,24023.7891,30584.5605,22622.2441,0.038,0.992,-0.006,192.000,0.000,0.000,0.000,0.000,0.000,0.000,0.000,0.000,0.000,1602542207.978000,2020-10-12 15:36:47.978003
24.000,14997.2598,-30767.0859,17422.4473,15978.3008,25895.2324,24232.3516,30496.2500,22256.1895,0.038,0.992,-0.006,192.000,0.000,0.000,0.000,0.000,0.000,0.000,0.000,0.000,0.000,1602542207.982020,2020-10-12 15:36:47.982018
25.000,14996.5225,-30709.9551,16969.2422,15803.6660,25223.0938,23959.3477,30277.4043,21917.0684,0.038,0.992,-0.006,192.000,0.000,0.000,0.000,0.000,0.000,0.000,0.000,0.000,0.000,1602542207.986040,2020-10-12 15:36:47.986043
26.000,14946.2314,-30858.6836,17296.2031,15666.7617,25781.9980,23713.4785,30328.0313,22220.2480,0.040,0.984,-0.004,192.000,1.000,64.000,30.000,192.000,255.000,224.000,0.000,0.000,0.000,1602542207.990070,2020-10-12 15:36:47.990068
27.000,14928.0146,-30949.8555,17812.5078,15821.1680,26569.2051,23959.8848,30570.0098,22626.1328,0.040,0.984,-0.004,192.000,0.000,0.000,0.000,0.000,0.000,0.000,0.000,0.000,0.000,1602542207.994090,2020-10-12 15:36:47.994093
28.000,14973.0527,-30809.5996,17530.0918,15977.6074,26073.3320,24238.6777,30540.7520,22350.9160,0.040,0.984,-0.004,192.000,0.000,0.000,0.000,0.000,0.000,0.000,0.000,0.000,0.000,1602542207.998120,2020-10-12 15:36:47.998118
29.000,14990.3984,-30702.8691,16991.1035,15839.8535,25258.6094,24027.8105,30305.6113,21935.0176,0.040,0.984,-0.004,192.000,0.000,0.000,0.000,0.000,0.000,0.000,0.000,0.000,0.000,1602542208.002140,2020-10-12 15:36:48.002143
30.000,14953.8525,-30824.4395,17177.5391,15672.5283,25605.6211,23728.0527,30294.6816,22129.9922,0.040,0.984,-0.004,192.000,0.000,0.000,0.000,0.000,0.000,0.000,0.000,0.000,0.000,1602542208.006170,2020-10-12 15:36:48.006168
31.000,14931.6133,-30946.2344,17758.3477,15781.1807,26503.6465,23888.9629,30529.1074,22592.2031,0.040,0.984,-0.004,192.000,0.000,0.000,0.000,0.000,0.000,0.000,0.000,0.000,0.000,1602542208.010190,2020-10-12 15:36:48.010193
32.000,14975.2881,-30832.4199,17620.6621,15970.7451,26225.5234,24215.8574,30556.7109,22427.7852,0.040,0.984,-0.004,192.000,0.000,0.000,0.000,0.000,0.000,0.000,0.000,0.000,0.000,1602542208.014220,2020-10-12 15:36:48.014218
33.000,15001.6631,-30696.0293,17039.7617,15879.7959,25322.2910,24083.8027,30325.1465,21958.1523,0.040,0.984,-0.004,192.000,0.000,0.000,0.000,0.000,0.000,0.000,0.000,0.000,0.000,1602542208.018240,2020-10-12 15:36:48.018243
34.000,14968.6279,-30788.6543,17085.0254,15690.0078,25444.3750,23753.9570,30263.5449,22034.9297,0.040,0.984,-0.004,192.000,0.000,0.000,0.000,0.000,0.000,0.000,0.000,0.000,0.000,1602542208.022270,2020-10-12 15:36:48.022268
35.000,14923.8564,-30955.2871,17691.7637,15744.6797,26394.1465,23832.7031,30487.9121,22528.0762,0.040,0.984,-0.004,192.000,0.000,0.000,0.000,0.000,0.000,0.000,0.000,0.000,0.000,1602542208.026290,2020-10-12 15:36:48.026293
36.000,14957.8096,-30873.3691,17710.0020,15948.6172,26363.4121,24183.7598,30581.0527,22495.4648,0.038,0.996,-0.010,192.000,1.000,48.000,31.000,32.000,255.000,176.000,0.000,0.000,0.000,1602542208.030320,2020-10-12 15:36:48.030318
37.000,14990.6211,-30709.4844,17120.9883,15911.2227,25441.3359,24141.1348,30372.4219,22018.9492,0.038,0.996,-0.010,192.000,0.000,0.000,0.000,0.000,0.000,0.000,0.000,0.000,0.000,1602542208.034340,2020-10-12 15:36:48.034343
38.000,14972.7178,-30755.7988,17013.4102,15709.6104,25326.5156,23791.8887,30246.8496,21972.0332,0.038,0.996,-0.010,192.000,0.000,0.000,0.000,0.000,0.000,0.000,0.000,0.000,0.000,1602542208.038370,2020-10-12 15:36:48.038367
39.000,14941.3359,-30918.2500,17592.8125,15715.4658,26246.9824,23770.0059,30439.3418,22455.8359,0.038,0.996,-0.010,192.000,0.000,0.000,0.000,0.000,0.000,0.000,0.000,0.000,0.000,1602542208.042390,2020-10-12 15:36:48.042392
40.000,14970.8623,-30874.1738,17772.6309,15930.6240,26469.4941,24125.0195,30583.8691,22555.8379,0.038,0.996,-0.010,192.000,0.000,0.000,0.000,0.000,0.000,0.000,0.000,0.000,0.000,1602542208.046410,2020-10-12 15:36:48.046411
41.000,15006.3799,-30711.3184,17223.2031,15950.0029,25585.1250,24182.1953,30410.3750,22091.6582,0.038,0.996,-0.010,192.000,0.000,0.000,0.000,0.000,0.000,0.000,0.000,0.000,0.000,1602542208.050430,2020-10-12 15:36:48.050431
42.000,14981.9717,-30728.3281,16974.5391,15742.4004,25242.5840,23842.5820,30242.2676,21926.1660,0.038,0.996,-0.010,192.000,0.000,0.000,0.000,0.000,0.000,0.000,0.000,0.000,0.000,1602542208.054450,2020-10-12 15:36:48.054450
43.000,14940.2412,-30894.9375,17489.6797,15692.0420,26076.5938,23734.1094,30392.4707,22366.1387,0.038,0.996,-0.010,192.000,0.000,0.000,0.000,0.000,0.000,0.000,0.000,0.000,0.000,1602542208.058470,2020-10-12 15:36:48.058469
44.000,14937.9609,-30919.4805,17824.3984,15894.5039,26546.1816,24069.2285,30589.1660,22597.5234,0.038,0.996,-0.010,192.000,0.000,0.000,0.000,0.000,0.000,0.000,0.000,0.000,0.000,1602542208.062490,2020-10-12 15:36:48.062488
45.000,14980.2275,-30755.1055,17348.1934,15966.3867,25762.6875,24216.9297,30466.5898,22184.0605,0.038,0.996,-0.010,192.000,0.000,0.000,0.000,0.000,0.000,0.000,0.000,0.000,0.000,1602542208.066510,2020-10-12 15:36:48.066507
46.000,14988.6318,-30708.1895,16963.0059,15774.9219,25207.8262,23899.0430,30252.0352,21902.7422,0.038,1.002,-0.016,192.000,1.000,48.000,31.000,80.000,255.000,128.000,0.000,0.000,0.000,1602542208.070530,2020-10-12 15:36:48.070526
47.000,14962.3018,-30850.0547,17373.2500,15676.3281,25886.4258,23698.3477,30335.7422,22259.6777,0.038,1.002,-0.016,192.000,0.000,0.000,0.000,0.000,0.000,0.000,0.000,0.000,0.000,1602542208.074550,2020-10-12 15:36:48.074546
48.000,14963.8887,-30906.5156,17831.9082,15860.3281,26559.9297,23981.4102,30560.1094,22602.6191,0.038,1.002,-0.016,192.000,0.000,0.000,0.000,0.000,0.000,0.000,0.000,0.000,0.000,1602542208.078570,2020-10-12 15:36:48.078565
49.000,15000.8809,-30757.0488,17465.5859,15987.7324,25932.1797,24210.9395,30494.9766,22270.7852,0.038,1.002,-0.016,192.000,0.000,0.000,0.000,0.000,0.000,0.000,0.000,0.000,0.000,1602542208.082580,2020-10-12 15:36:48.082584
50.000,15000.3896,-30691.6719,16979.2793,15820.7656,25208.2520,23952.3066,30270.2285,21902.8320,0.038,1.002,-0.016,192.000,0.000,0.000,0.000,0.000,0.000,0.000,0.000,0.000,0.000,1602542208.086600,2020-10-12 15:36:48.086603
51.000,14945.3594,-30848.3340,17263.4805,15670.1143,25710.9434,23694.5254,30305.2988,22174.7402,0.038,1.002,-0.016,192.000,0.000,0.000,0.000,0.000,0.000,0.000,0.000,0.000,0.000,1602542208.090620,2020-10-12 15:36:48.090622
52.000,14919.5654,-30958.7520,17807.9922,15807.4658,26547.6348,23920.2773,30545.9824,22607.7168,0.038,1.002,-0.016,192.000,0.000,0.000,0.000,0.000,0.000,0.000,0.000,0.000,0.000,1602542208.094640,2020-10-12 15:36:48.094641
53.000,14968.4268,-30811.7441,17568.8945,15975.0596,26115.7109,24214.9629,30535.9688,22371.5020,0.038,1.002,-0.016,192.000,0.000,0.000,0.000,0.000,0.000,0.000,0.000,0.000,0.000,1602542208.098660,2020-10-12 15:36:48.098660
54.000,14990.5098,-30690.4199,17010.6836,15851.5664,25261.2246,24023.7891,30302.4375,21934.9512,0.038,1.002,-0.016,192.000,0.000,0.000,0.000,0.000,0.000,0.000,0.000,0.000,0.000,1602542208.102680,2020-10-12 15:36:48.102679
55.000,14947.6836,-30810.5156,17159.7461,15674.5176,25543.7520,23718.9551,30274.9219,22092.4414,0.038,1.002,-0.016,192.000,0.000,0.000,0.000,0.000,0.000,0.000,0.000,0.000,0.000,1602542208.106610,2020-10-12 15:36:48.106605
56.000,14923.9912,-30942.1230,17762.2598,15773.0225,26475.3730,23863.0117,30516.6797,22575.3281,0.034,1.002,-0.016,192.000,1.000,16.000,31.000,80.000,255.000,128.000,0.000,0.000,0.000,1602542208.110530,2020-10-12 15:36:48.110531
57.000,14959.9326,-30838.0078,17675.9609,15969.2256,26276.1289,24198.5332,30568.1113,22453.7793,0.034,1.002,-0.016,192.000,0.000,0.000,0.000,0.000,0.000,0.000,0.000,0.000,0.000,1602542208.114460,2020-10-12 15:36:48.114457
58.000,14986.6650,-30698.4434,17084.2871,15892.6035,25355.2363,24092.1406,30339.6309,21976.4805,0.034,1.002,-0.016,192.000,0.000,0.000,0.000,0.000,0.000,0.000,0.000,0.000,0.000,1602542208.118380,2020-10-12 15:36:48.118382
59.000,14956.4453,-30775.5352,17074.5645,15695.5059,25399.9395,23754.9863,30253.6895,22016.1094,0.034,1.002,-0.016,192.000,0.000,0.000,0.000,0.000,0.000,0.000,0.000,0.000,0.000,1602542208.122310,2020-10-12 15:36:48.122308
60.000,14908.1885,-30948.9844,17670.1934,15733.1465,26350.5605,23803.1309,30469.2715,22511.0664,0.034,1.002,-0.016,192.000,0.000,0.000,0.000,0.000,0.000,0.000,0.000,0.000,0.000,1602542208.126230,2020-10-12 15:36:48.126234
61.000,14931.2549,-30882.5547,17739.5059,15942.8506,26404.3164,24160.5137,30577.8105,22519.6719,0.034,1.002,-0.016,192.000,0.000,0.000,0.000,0.000,0.000,0.000,0.000,0.000,0.000,1602542208.130160,2020-10-12 15:36:48.130160
62.000,14963.1289,-30722.6719,17155.5898,15922.2197,25481.0098,24153.0488,30383.6191,22040.0488,0.034,1.002,-0.016,192.000,0.000,0.000,0.000,0.000,0.000,0.000,0.000,0.000,0.000,1602542208.134090,2020-10-12 15:36:48.134085
63.000,14949.8740,-30748.4219,17000.7813,15719.8252,25288.2480,23805.7031,30244.2344,21953.8379,0.034,1.002,-0.016,192.000,0.000,0.000,0.000,0.000,0.000,0.000,0.000,0.000,0.000,1602542208.138010,2020-10-12 15:36:48.138011
64.000,14907.5625,-30926.0293,17569.5430,15709.5205,26196.8477,23763.2793,30428.5469,22432.4551,0.034,1.002,-0.016,192.000,0.000,0.000,0.000,0.000,0.000,0.000,0.000,0.000,0.000,1602542208.141940,2020-10-12 15:36:48.141937
65.000,14920.3926,-30908.0137,17803.2754,15919.5596,26505.8145,24118.1797,30591.4004,22578.1230,0.034,1.002,-0.016,192.000,0.000,0.000,0.000,0.000,0.000,0.000,0.000,0.000,0.000,1602542208.145860,2020-10-12 15:36:48.145863
66.000,14962.7266,-30736.6875,17264.7773,15955.0547,25640.2656,24208.8164,30435.1621,22124.5156,0.036,1.002,-0.020,192.000,1.000,32.000,31.000,80.000,255.000,96.000,0.000,0.000,0.000,1602542208.149790,2020-10-12 15:36:48.149788
67.000,14954.9707,-30734.9668,16965.2637,15753.9111,25224.5234,23878.4570,30257.3984,21920.3320,0.036,1.002,-0.020,192.000,0.000,0.000,0.000,0.000,0.000,0.000,0.000,0.000,0.000,1602542208.153710,2020-10-12 15:36:48.153714
68.000,14900.6563,-30917.8711,17451.9512,15682.7881,26023.5996,23746.2246,30390.4355,22345.0820,0.036,1.002,-0.020,192.000,0.000,0.000,0.000,0.000,0.000,0.000,0.000,0.000,0.000,1602542208.157640,2020-10-12 15:36:48.157640
69.000,14908.0098,-30944.1348,17826.6563,15878.2090,26565.4277,24068.3809,30594.1953,22614.1973,0.036,1.002,-0.020,192.000,0.000,0.000,0.000,0.000,0.000,0.000,0.000,0.000,0.000,1602542208.161570,2020-10-12 15:36:48.161566
70.000,14950.9473,-30776.8086,17373.1172,15965.9619,25822.4336,24238.5430,30480.9844,22214.4141,0.036,1.002,-0.020,192.000,0.000,0.000,0.000,0.000,0.000,0.000,0.000,0.000,0.000,1602542208.165610,2020-10-12 15:36:48.165614
71.000,14958.3906,-30723.1641,16955.0488,15784.6221,25210.0391,23943.7012,30272.8438,21905.9160,0.036,1.002,-0.020,192.000,0.000,0.000,0.000,0.000,0.000,0.000,0.000,0.000,0.000,1602542208.169660,2020-10-12 15:36:48.169662
72.000,14921.6660,-30872.4746,17332.0117,15674.6299,25845.0977,23736.8594,30353.5117,22246.7578,0.036,1.002,-0.020,192.000,0.000,0.000,0.000,0.000,0.000,0.000,0.000,0.000,0.000,1602542208.173710,2020-10-12 15:36:48.173711
73.000,14913.7988,-30947.1523,17821.4473,15848.9287,26581.4316,24008.0742,30581.7441,22620.8145,0.036,1.002,-0.020,192.000,0.000,0.000,0.000,0.000,0.000,0.000,0.000,0.000,0.000,1602542208.177760,2020-10-12 15:36:48.177759
74.000,14950.5000,-30797.1484,17491.8047,15989.1631,26008.9355,24258.6387,30527.8555,22313.8125,0.036,1.002,-0.020,192.000,0.000,0.000,0.000,0.000,0.000,0.000,0.000,0.000,0.000,1602542208.181810,2020-10-12 15:36:48.181807
75.000,14956.5352,-30716.3926,16980.1270,15834.7354,25238.4707,24020.7031,30306.7520,21924.8926,0.036,0.992,-0.026,192.000,1.000,32.000,31.000,0.000,255.000,48.000,0.000,0.000,0.000,1602542208.185860,2020-10-12 15:36:48.185856
76.000,14921.6445,-30840.1992,17221.6387,15676.8203,25670.9102,23746.6270,30321.5938,22162.1563,0.036,0.992,-0.026,192.000,0.000,0.000,0.000,0.000,0.000,0.000,0.000,0.000,0.000,1602542208.189900,2020-10-12 15:36:48.189904
77.000,14903.7627,-30955.5332,17793.7090,15801.7441,26544.4395,23945.0430,30560.4668,22611.2695,0.036,0.992,-0.026,192.000,0.000,0.000,0.000,0.000,0.000,0.000,0.000,0.000,0.000,1602542208.193950,2020-10-12 15:36:48.193953
78.000,14953.2051,-30821.4668,17608.0781,15979.0381,26182.3398,24253.3848,30568.3340,22408.0918,0.036,0.992,-0.026,192.000,0.000,0.000,0.000,0.000,0.000,0.000,0.000,0.000,0.000,1602542208.198000,2020-10-12 15:36:48.198001
79.000,14968.1357,-30705.4629,17034.1973,15865.7813,25301.9941,24089.9492,30337.7988,21957.1230,0.036,0.992,-0.026,192.000,0.000,0.000,0.000,0.000,0.000,0.000,0.000,0.000,0.000,1602542208.202050,2020-10-12 15:36:48.202049
80.000,14928.3721,-30814.9629,17132.0742,15680.1729,25514.0234,23774.7012,30294.9727,22079.7461,0.036,0.992,-0.026,192.000,0.000,0.000,0.000,0.000,0.000,0.000,0.000,0.000,0.000,1602542208.206100,2020-10-12 15:36:48.206098
81.000,14902.5781,-30957.1211,17739.6621,15760.2588,26462.3867,23888.4043,30528.1016,22572.2207,0.036,0.992,-0.026,192.000,0.000,0.000,0.000,0.000,0.000,0.000,0.000,0.000,0.000,1602542208.210150,2020-10-12 15:36:48.210146
82.000,14947.3711,-30850.2559,17702.2012,15963.6826,26339.3398,24228.0391,30593.2559,22489.5430,0.036,0.992,-0.026,192.000,0.000,0.000,0.000,0.000,0.000,0.000,0.000,0.000,0.000,1602542208.214200,2020-10-12 15:36:48.214195
83.000,14973.0527,-30707.2949,17104.5820,15903.6455,25406.9141,24155.2168,30382.5684,22009.1816,0.036,0.992,-0.026,192.000,0.000,0.000,0.000,0.000,0.000,0.000,0.000,0.000,0.000,1602542208.218240,2020-10-12 15:36:48.218243
84.000,14919.9229,-30794.1758,17052.7930,15698.1660,25383.8477,23823.0020,30287.9316,22014.1426,0.036,0.992,-0.026,192.000,0.000,0.000,0.000,0.000,0.000,0.000,0.000,0.000,0.000,1602542208.222290,2020-10-12 15:36:48.222291
85.000,14893.9277,-30939.9316,17648.8027,15724.6973,26331.6953,23838.5820,30488.9180,22506.8418,0.030,0.992,-0.026,192.000,0.000,240.000,31.000,0.000,255.000,48.000,0.000,0.000,0.000,1602542208.226280,2020-10-12 15:36:48.226277
86.000,14914.7148,-30887.4727,17771.4922,15940.1904,26467.2363,24194.4219,30609.9531,22558.4531,0.030,0.992,-0.026,192.000,0.000,0.000,0.000,0.000,0.000,0.000,0.000,0.000,0.000,1602542208.230260,2020-10-12 15:36:48.230262
87.000,14945.7393,-30720.8184,17198.3262,15939.9443,25558.8164,24219.0762,30427.4512,22086.1602,0.030,0.992,-0.026,192.000,0.000,0.000,0.000,0.000,0.000,0.000,0.000,0.000,0.000,1602542208.234250,2020-10-12 15:36:48.234247
88.000,14944.5322,-30725.4004,16994.2773,15738.3545,25291.9141,23875.6406,30281.3594,21960.2305,0.030,0.992,-0.026,192.000,0.000,0.000,0.000,0.000,0.000,0.000,0.000,0.000,0.000,1602542208.238230,2020-10-12 15:36:48.238232
89.000,14903.2490,-30903.6543,17538.7871,15707.4424,26168.9961,23800.2715,30445.6895,22419.8047,0.030,0.992,-0.026,192.000,0.000,0.000,0.000,0.000,0.000,0.000,0.000,0.000,0.000,1602542208.242220,2020-10-12 15:36:48.242217
90.000,14907.2051,-30902.6719,17821.2910,15914.2402,26556.7109,24144.3086,30620.0566,22609.1680,0.030,0.992,-0.026,192.000,0.000,0.000,0.000,0.000,0.000,0.000,0.000,0.000,0.000,1602542208.246200,2020-10-12 15:36:48.246202
91.000,14959.7090,-30714.6270,17310.4199,15972.6230,25720.5762,24251.7754,30466.2754,22169.1523,0.030,0.992,-0.026,192.000,0.000,0.000,0.000,0.000,0.000,0.000,0.000,0.000,0.000,1602542208.250190,2020-10-12 15:36:48.250187
92.000,14949.5391,-30699.7617,16973.8926,15775.4355,25237.5547,23932.9727,30281.0020,21927.8867,0.030,0.992,-0.026,192.000,0.000,0.000,0.000,0.000,0.000,0.000,0.000,0.000,0.000,1602542208.254170,2020-10-12 15:36:48.254173
93.000,14909.4404,-30857.4531,17427.4316,15694.2549,25987.9023,23770.9902,30395.8906,22321.2109,0.030,0.992,-0.026,192.000,0.000,0.000,0.000,0.000,0.000,0.000,0.000,0.000,0.000,1602542208.258160,2020-10-12 15:36:48.258158
94.000,14904.0752,-30901.9570,17845.7656,15885.6973,26602.4648,24079.3770,30612.6133,22632.3926,0.030,0.992,-0.026,192.000,0.000,0.000,0.000,0.000,0.000,0.000,0.000,0.000,0.000,1602542208.262140,2020-10-12 15:36:48.262143
95.000,14948.3096,-30736.9336,17429.8672,15986.9502,25903.9277,24273.8594,30516.2324,22264.6387,0.036,0.988,-0.034,192.000,1.000,32.000,30.000,224.000,254.000,240.000,0.000,0.000,0.000,1602542208.266130,2020-10-12 15:36:48.266128
96.000,14951.6621,-30678.2383,16973.1543,15806.3936,25229.8652,23991.1094,30294.4355,21923.3496,0.036,0.988,-0.034,192.000,0.000,0.000,0.000,0.000,0.000,0.000,0.000,0.000,0.000,1602542208.270110,2020-10-12 15:36:48.270113
97.000,14917.0400,-30813.7559,17306.4180,15677.0439,25802.8750,23754.7402,30346.6270,22227.2891,0.036,0.988,-0.034,192.000,0.000,0.000,0.000,0.000,0.000,0.000,0.000,0.000,0.000,1602542208.274100,2020-10-12 15:36:48.274098
98.000,14902.8906,-30902.6270,17826.9023,15834.9141,26592.7852,24002.2188,30579.8906,22628.1016,0.036,0.988,-0.034,192.000,0.000,0.000,0.000,0.000,0.000,0.000,0.000,0.000,0.000,1602542208.278080,2020-10-12 15:36:48.278083
99.000,14949.0693,-30755.7305,17541.2910,15988.3359,26079.8809,24273.6133,30543.0762,22347.0059,0.036,0.988,-0.034,192.000,0.000,0.000,0.000,0.000,0.000,0.000,0.000,0.000,0.000,1602542208.282070,2020-10-12 15:36:48.282068
100.000,14967.1973,-30651.4824,17004.1328,15845.1738,25256.4863,24056.2422,30310.3945,21926.3457,0.036,0.988,-0.034,192.000,0.000,0.000,0.000,0.000,0.000,0.000,0.000,0.000,0.000,1602542208.286090,2020-10-12 15:36:48.286086
101.000,14919.2969,-30779.9375,17199.7109,15675.7471,25617.6465,23773.3809,30309.3438,22126.3496,0.036,0.988,-0.034,192.000,0.000,0.000,0.000,0.000,0.000,0.000,0.000,0.000,0.000,1602542208.290100,2020-10-12 15:36:48.290103
102.000,14889.5918,-30907.2305,17788.8359,15788.5342,26531.6758,23955.6816,30554.9453,22599.8711,0.036,0.988,-0.034,192.000,0.000,0.000,0.000,0.000,0.000,0.000,0.000,0.000,0.000,1602542208.294120,2020-10-12 15:36:48.294120
103.000,14945.2031,-30767.0410,17641.7168,15973.5840,26241.4160,24270.1934,30576.6270,22430.8691,0.036,0.988,-0.034,192.000,0.000,0.000,0.000,0.000,0.000,0.000,0.000,0.000,0.000,1602542208.298140,2020-10-12 15:36:48.298137
104.000,14963.9561,-30636.7305,17050.7598,15874.9688,25332.3262,24128.6621,30343.3633,21962.3535,0.036,0.988,-0.034,192.000,0.000,0.000,0.000,0.000,0.000,0.000,0.000,0.000,0.000,1602542208.302150,2020-10-12 15:36:48.302154
105.000,14914.4473,-30736.5762,17097.2070,15680.0830,25466.9277,23807.2676,30278.5430,22045.7031,0.044,0.978,-0.042,192.000,1.000,96.000,30.000,144.000,254.000,176.000,0.000,0.000,0.000,1602542208.306170,2020-10-12 15:36:48.306171
106.000,14874.1240,-30900.5254,17708.0117,15740.7910,26428.3223,23899.4238,30516.3672,22550.4727,0.044,0.978,-0.042,192.000,0.000,0.000,0.000,0.000,0.000,0.000,0.000,0.000,0.000,1602542208.310190,2020-10-12 15:36:48.310188
107.000,14899.8955,-30827.1230,17725.5137,15943.0742,26394.8613,24254.5020,30606.8242,22518.2871,0.044,0.978,-0.042,192.000,0.000,0.000,0.000,0.000,0.000,0.000,0.000,0.000,0.000,1602542208.314210,2020-10-12 15:36:48.314206
108.000,14937.6924,-30663.5527,17134.1094,15902.0137,25466.0801,24211.4766,30399.8027,22035.5332,0.044,0.978,-0.042,192.000,0.000,0.000,0.000,0.000,0.000,0.000,0.000,0.000,0.000,1602542208.318220,2020-10-12 15:36:48.318223
109.000,14936.1729,-30696.0293,17030.7324,15704.7373,25353.4258,23863.2363,30275.5254,21989.8906,0.044,0.978,-0.042,192.000,0.000,0.000,0.000,0.000,0.000,0.000,0.000,0.000,0.000,1602542208.322240,2020-10-12 15:36:48.322240
110.000,14883.1992,-30888.2539,17617.4883,15710.8398,26291.2383,23857.6484,30477.6758,22484.1328,0.044,0.978,-0.042,192.000,0.000,0.000,0.000,0.000,0.000,0.000,0.000,0.000,0.000,1602542208.326260,2020-10-12 15:36:48.326257
111.000,14894.5537,-30864.1152,17795.3848,15921.7510,26516.6777,24216.5059,30624.0801,22585.0508,0.044,0.978,-0.042,192.000,0.000,0.000,0.000,0.000,0.000,0.000,0.000,0.000,0.000,1602542208.330270,2020-10-12 15:36:48.330274
112.000,14940.0615,-30694.0625,17238.1797,15936.1006,25620.9766,24272.0723,30445.5117,22112.3125,0.044,0.978,-0.042,192.000,0.000,0.000,0.000,0.000,0.000,0.000,0.000,0.000,0.000,1602542208.334290,2020-10-12 15:36:48.334291
113.000,14937.8486,-30695.1348,16985.3359,15732.3193,25278.1895,23936.3926,30271.5469,21942.1934,0.044,0.978,-0.042,192.000,0.000,0.000,0.000,0.000,0.000,0.000,0.000,0.000,0.000,1602542208.338310,2020-10-12 15:36:48.338308
114.000,14887.3789,-30875.9395,17504.3438,15685.2246,26123.2871,23836.4141,30428.0762,22391.6641,0.044,0.978,-0.042,192.000,0.000,0.000,0.000,0.000,0.000,0.000,0.000,0.000,0.000,1602542208.342330,2020-10-12 15:36:48.342325
115.000,14899.5830,-30880.4980,17830.0762,15890.1230,26584.2246,24166.0566,30617.3281,22620.0996,0.050,0.982,-0.050,192.000,1.000,144.000,30.000,176.000,254.000,112.000,0.000,0.000,0.000,1602542208.346260,2020-10-12 15:36:48.346255
116.000,14940.3076,-30717.2637,17349.8477,15957.8936,25789.1504,24304.5039,30484.2910,22199.1035,0.050,0.982,-0.050,192.000,0.000,0.000,0.000,0.000,0.000,0.000,0.000,0.000,0.000,1602542208.350180,2020-10-12 15:36:48.350184
117.000,14934.6748,-30690.7539,16971.4551,15761.7344,25239.2305,23988.9863,30279.5938,21923.8633,0.050,0.982,-0.050,192.000,0.000,0.000,0.000,0.000,0.000,0.000,0.000,0.000,0.000,1602542208.354110,2020-10-12 15:36:48.354113
118.000,14889.9717,-30852.5586,17391.3770,15661.2188,25935.5332,23797.5879,30369.8945,22291.4824,0.050,0.982,-0.050,192.000,0.000,0.000,0.000,0.000,0.000,0.000,0.000,0.000,0.000,1602542208.358040,2020-10-12 15:36:48.358042
119.000,14887.4014,-30909.7129,17854.6406,15846.7383,26615.4727,24087.9375,30600.9238,22636.1914,0.050,0.982,-0.050,192.000,0.000,0.000,0.000,0.000,0.000,0.000,0.000,0.000,0.000,1602542208.361970,2020-10-12 15:36:48.361971
120.000,14932.3506,-30754.5684,17483.9805,15970.9023,25982.3828,24313.3320,30533.3535,22292.9141,0.050,0.982,-0.050,192.000,0.000,0.000,0.000,0.000,0.000,0.000,0.000,0.000,0.000,1602542208.365900,2020-10-12 15:36:48.365900
121.000,14953.3164,-30666.9727,16997.1152,15808.7852,25258.8105,24047.1230,30305.6777,21924.2891,0.050,0.982,-0.050,192.000,0.000,0.000,0.000,0.000,0.000,0.000,0.000,0.000,0.000,1602542208.369830,2020-10-12 15:36:48.369829
122.000,14905.7744,-30814.4258,17287.2402,15669.7793,25766.8438,23791.1289,30343.1621,22199.6172,0.050,0.982,-0.050,192.000,0.000,0.000,0.000,0.000,0.000,0.000,0.000,0.000,0.000,1602542208.373760,2020-10-12 15:36:48.373759
123.000,14882.9756,-30924.3965,17833.5840,15814.5518,26603.1563,24015.4512,30587.7344,22629.1055,0.050,0.982,-0.050,192.000,0.000,0.000,0.000,0.000,0.000,0.000,0.000,0.000,0.000,1602542208.377690,2020-10-12 15:36:48.377688
124.000,14932.5742,-30780.8105,17590.8887,15978.2559,26167.5879,24306.0469,30576.2012,22397.2734,0.050,0.982,-0.050,192.000,0.000,0.000,0.000,0.000,0.000,0.000,0.000,0.000,0.000,1602542208.381620,2020-10-12 15:36:48.381617
125.000,14955.9092,-30664.5137,17033.3926,15852.5938,25322.9395,24116.6152,30348.4824,21984.2363,0.046,0.994,-0.058,192.000,1.000,112.000,31.000,16.000,254.000,48.000,0.000,0.000,0.000,1602542208.385550,2020-10-12 15:36:48.385546
126.000,14909.4619,-30785.7500,17177.6270,15676.0820,25614.8965,23812.6543,30326.0859,22151.5840,0.046,0.994,-0.058,192.000,0.000,0.000,0.000,0.000,0.000,0.000,0.000,0.000,0.000,1602542208.389480,2020-10-12 15:36:48.389475
127.000,14874.4814,-30927.5488,17774.9785,15770.6523,26546.3398,23959.1914,30572.4238,22631.2754,0.046,0.994,-0.058,192.000,0.000,0.000,0.000,0.000,0.000,0.000,0.000,0.000,0.000,1602542208.393400,2020-10-12 15:36:48.393404
128.000,14920.3027,-30819.3223,17684.9453,15966.9014,26342.2676,24300.4355,30618.4473,22503.4668,0.046,0.994,-0.058,192.000,0.000,0.000,0.000,0.000,0.000,0.000,0.000,0.000,0.000,1602542208.397330,2020-10-12 15:36:48.397333
129.000,14961.2070,-30664.6934,17090.4336,15891.2852,25419.6992,24191.6055,30389.2305,22022.7266,0.046,0.994,-0.058,192.000,0.000,0.000,0.000,0.000,0.000,0.000,0.000,0.000,0.000,1602542208.401260,2020-10-12 15:36:48.401262
130.000,14929.5342,-30747.8418,17084.1973,15695.7520,25469.4766,23852.7520,30306.0371,22059.8965,0.046,0.994,-0.058,192.000,0.000,0.000,0.000,0.000,0.000,0.000,0.000,0.000,0.000,1602542208.405280,2020-10-12 15:36:48.405279
131.000,14873.6553,-30929.4258,17685.4824,15735.3818,26427.4727,23902.7539,30520.0996,22556.3965,0.046,0.994,-0.058,192.000,0.000,0.000,0.000,0.000,0.000,0.000,0.000,0.000,0.000,1602542208.409300,2020-10-12 15:36:48.409295
132.000,14908.5908,-30852.1563,17753.0742,15948.6396,26474.7910,24259.7559,30629.5332,22564.3984,0.046,0.994,-0.058,192.000,0.000,0.000,0.000,0.000,0.000,0.000,0.000,0.000,0.000,1602542208.413310,2020-10-12 15:36:48.413311
133.000,14949.5166,-30687.8711,17172.5996,15928.9922,25554.6582,24250.7695,30430.8711,22083.8359,0.046,0.994,-0.058,192.000,0.000,0.000,0.000,0.000,0.000,0.000,0.000,0.000,0.000,1602542208.417330,2020-10-12 15:36:48.417328
134.000,14918.9395,-30737.6934,17019.8477,15720.4512,25370.9941,23907.8496,30295.0625,21997.2227,0.050,0.980,-0.050,192.000,1.000,144.000,30.000,160.000,254.000,112.000,0.000,0.000,0.000,1602542208.421340,2020-10-12 15:36:48.421344
135.000,14881.2324,-30901.3086,17581.4570,15707.6211,26276.0391,23859.0996,30474.9492,22473.6270,0.050,0.980,-0.050,192.000,0.000,0.000,0.000,0.000,0.000,0.000,0.000,0.000,0.000,1602542208.425360,2020-10-12 15:36:48.425360
136.000,14907.4951,-30873.7266,17810.5840,15923.4492,26575.7988,24205.6641,30630.4941,22612.7676,0.050,0.980,-0.050,192.000,0.000,0.000,0.000,0.000,0.000,0.000,0.000,0.000,0.000,1602542208.429380,2020-10-12 15:36:48.429376
137.000,14940.5313,-30717.4648,17281.4512,15957.1338,25715.1445,24295.5410,30471.0371,22155.7852,0.050,0.980,-0.050,192.000,0.000,0.000,0.000,0.000,0.000,0.000,0.000,0.000,0.000,1602542208.433390,2020-10-12 15:36:48.433393
138.000,14926.5166,-30718.2031,16986.0059,15752.2568,25302.6875,23965.0039,30289.6074,21949.3223,0.050,0.980,-0.050,192.000,0.000,0.000,0.000,0.000,0.000,0.000,0.000,0.000,0.000,1602542208.437410,2020-10-12 15:36:48.437409
139.000,14858.8809,-30911.3438,17472.1113,15679.4131,26099.1699,23834.6250,30430.3789,22370.3633,0.050,0.980,-0.050,192.000,0.000,0.000,0.000,0.000,0.000,0.000,0.000,0.000,0.000,1602542208.441430,2020-10-12 15:36:48.441425
140.000,14868.8721,-30930.0977,17850.5273,15878.5449,26636.9980,24158.2344,30635.3438,22639.3652,0.050,0.980,-0.050,192.000,0.000,0.000,0.000,0.000,0.000,0.000,0.000,0.000,0.000,1602542208.445440,2020-10-12 15:36:48.445441
141.000,14924.4824,-30754.6367,17410.8906,15976.5342,25899.3672,24338.6797,30528.6367,22255.0273,0.050,0.980,-0.050,192.000,0.000,0.000,0.000,0.000,0.000,0.000,0.000,0.000,0.000,1602542208.449460,2020-10-12 15:36:48.449458
142.000,14925.5107,-30706.2441,16997.3379,15795.6191,25292.9863,24047.7051,30325.5938,21956.2070,0.050,0.980,-0.050,192.000,0.000,0.000,0.000,0.000,0.000,0.000,0.000,0.000,0.000,1602542208.453470,2020-10-12 15:36:48.453474
143.000,14876.2480,-30864.4043,17370.6797,15675.1885,25926.4805,23834.7598,30404.2051,22299.5078,0.050,0.980,-0.050,192.000,0.000,0.000,0.000,0.000,0.000,0.000,0.000,0.000,0.000,1602542208.457490,2020-10-12 15:36:48.457490
144.000,14865.0938,-30940.5566,17858.8203,15842.9834,26657.7168,24105.3711,30635.3887,22669.8086,0.044,0.986,-0.048,192.000,1.000,96.000,30.000,208.000,254.000,128.000,0.000,0.000,0.000,1602542208.461510,2020-10-12 15:36:48.461507
145.000,14923.6113,-30775.6016,17531.5000,15989.7441,26083.6133,24361.0313,30578.7285,22353.9570,0.044,0.986,-0.048,192.000,0.000,0.000,0.000,0.000,0.000,0.000,0.000,0.000,0.000,1602542208.465610,2020-10-12 15:36:48.465612
146.000,14932.3955,-30690.9785,17023.6699,15836.7920,25318.1992,24128.6406,30351.2754,21961.7949,0.044,0.986,-0.048,192.000,0.000,0.000,0.000,0.000,0.000,0.000,0.000,0.000,0.000,1602542208.469720,2020-10-12 15:36:48.469717
147.000,14885.9932,-30826.9219,17263.3906,15678.8320,25750.0801,23850.8535,30362.2734,22199.1035,0.044,0.986,-0.048,192.000,0.000,0.000,0.000,0.000,0.000,0.000,0.000,0.000,0.000,1602542208.473820,2020-10-12 15:36:48.473822
148.000,14859.4619,-30951.4648,17826.4102,15802.0342,26620.1660,24047.5488,30604.2305,22646.4063,0.044,0.986,-0.048,192.000,0.000,0.000,0.000,0.000,0.000,0.000,0.000,0.000,0.000,1602542208.477930,2020-10-12 15:36:48.477927
149.000,14898.3535,-30828.5078,17640.3320,15979.6865,26266.8535,24371.6270,30625.6445,22446.4922,0.044,0.986,-0.048,192.000,0.000,0.000,0.000,0.000,0.000,0.000,0.000,0.000,0.000,1602542208.482030,2020-10-12 15:36:48.482032
150.000,14925.9580,-30698.3535,17070.5410,15871.1465,25394.3965,24215.5664,30392.7617,21998.7422,0.044,0.986,-0.048,192.000,0.000,0.000,0.000,0.000,0.000,0.000,0.000,0.000,0.000,1602542208.486140,2020-10-12 15:36:48.486137
151.000,14887.2891,-30804.8164,17162.5176,15685.1572,25602.6699,23898.1035,30347.6113,22122.4375,0.044,0.986,-0.048,192.000,0.000,0.000,0.000,0.000,0.000,0.000,0.000,0.000,0.000,1602542208.490240,2020-10-12 15:36:48.490242
152.000,14847.4365,-30959.0879,17764.0039,15763.7910,26547.8145,24014.7363,30592.1172,22619.0254,0.044,0.986,-0.048,192.000,0.000,0.000,0.000,0.000,0.000,0.000,0.000,0.000,0.000,1602542208.494350,2020-10-12 15:36:48.494348
153.000,14903.1592,-30850.8828,17732.9121,15975.9092,26431.4063,24364.2500,30660.2227,22539.7441,0.044,0.986,-0.048,192.000,0.000,0.000,0.000,0.000,0.000,0.000,0.000,0.000,0.000,1602542208.498450,2020-10-12 15:36:48.498453
154.000,14920.1914,-30719.3203,17150.3594,15919.7607,25521.3105,24308.7949,30449.7578,22067.7871,0.038,0.998,-0.046,192.000,1.000,48.000,31.000,48.000,254.000,144.000,0.000,0.000,0.000,1602542208.502560,2020-10-12 15:36:48.502558
155.000,14902.3770,-30766.4824,17088.0430,15716.3379,25488.6328,23963.1934,30344.3477,22061.6621,0.038,0.998,-0.046,192.000,0.000,0.000,0.000,0.000,0.000,0.000,0.000,0.000,0.000,1602542208.506660,2020-10-12 15:36:48.506663
156.000,14857.8525,-30939.8418,17670.9531,15736.1641,26422.7344,23972.4023,30546.2051,22550.3398,0.038,0.998,-0.046,192.000,0.000,0.000,0.000,0.000,0.000,0.000,0.000,0.000,0.000,1602542208.510770,2020-10-12 15:36:48.510768
157.000,14885.7920,-30888.8809,17798.6035,15955.2109,26560.1523,24339.0820,30675.9805,22602.8203,0.038,0.998,-0.046,192.000,0.000,0.000,0.000,0.000,0.000,0.000,0.000,0.000,0.000,1602542208.514870,2020-10-12 15:36:48.514873
158.000,14917.7998,-30732.8203,17239.6992,15957.9160,25665.5898,24380.8125,30504.0723,22133.1660,0.038,0.998,-0.046,192.000,0.000,0.000,0.000,0.000,0.000,0.000,0.000,0.000,0.000,1602542208.518980,2020-10-12 15:36:48.518978
159.000,14894.5313,-30758.2559,17037.3262,15748.6582,25405.9980,24041.9160,30354.0039,22012.3320,0.038,0.998,-0.046,192.000,0.000,0.000,0.000,0.000,0.000,0.000,0.000,0.000,0.000,1602542208.523080,2020-10-12 15:36:48.523083
160.000,14844.6201,-30938.0547,17567.9121,15708.5596,26275.6602,23959.3262,30522.9160,22472.3086,0.038,0.998,-0.046,192.000,0.000,0.000,0.000,0.000,0.000,0.000,0.000,0.000,0.000,1602542208.527020,2020-10-12 15:36:48.527017
161.000,14854.1191,-30944.8262,17847.7109,15918.9346,26666.5469,24310.2031,30711.9219,22672.0664,0.038,0.998,-0.046,192.000,0.000,0.000,0.000,0.000,0.000,0.000,0.000,0.000,0.000,1602542208.530950,2020-10-12 15:36:48.530951
162.000,14912.7930,-30754.4570,17353.1348,15982.3457,25853.6816,24438.7031,30572.4688,22247.5625,0.038,0.998,-0.046,192.000,0.000,0.000,0.000,0.000,0.000,0.000,0.000,0.000,0.000,1602542208.534880,2020-10-12 15:36:48.534884
163.000,14932.2607,-30704.0547,17018.5273,15790.0986,25372.9395,24112.6582,30375.5957,22010.4766,0.038,0.998,-0.046,192.000,0.000,0.000,0.000,0.000,0.000,0.000,0.000,0.000,0.000,1602542208.538820,2020-10-12 15:36:48.538818
164.000,14868.6924,-30885.9297,17461.8301,15696.4893,26109.4961,23936.6602,30489.1855,22404.9180,0.044,0.990,-0.040,192.000,1.000,96.000,30.000,240.000,254.000,192.000,0.000,0.000,0.000,1602542208.542750,2020-10-12 15:36:48.542752
165.000,14860.0430,-30944.0215,17875.2930,15882.2100,26713.4844,24239.0137,30701.3047,22704.4980,0.044,0.990,-0.040,192.000,0.000,0.000,0.000,0.000,0.000,0.000,0.000,0.000,0.000,1602542208.546690,2020-10-12 15:36:48.546685
166.000,14898.1973,-30790.9805,17477.7891,15992.0693,26040.1621,24457.0762,30620.0781,22338.1309,0.044,0.990,-0.040,192.000,0.000,0.000,0.000,0.000,0.000,0.000,0.000,0.000,0.000,1602542208.550620,2020-10-12 15:36:48.550619
167.000,14896.5205,-30729.6250,17032.6777,15815.6465,25383.7578,24188.3633,30405.5684,22004.7559,0.044,0.990,-0.040,192.000,0.000,0.000,0.000,0.000,0.000,0.000,0.000,0.000,0.000,1602542208.554550,2020-10-12 15:36:48.554552
168.000,14854.8350,-30862.9297,17350.8535,15676.4180,25942.8203,23938.7852,30457.4688,22310.0801,0.044,0.990,-0.040,192.000,0.000,0.000,0.000,0.000,0.000,0.000,0.000,0.000,0.000,1602542208.558490,2020-10-12 15:36:48.558486
169.000,14855.7061,-30945.4980,17860.4297,15834.3330,26720.3242,24179.1328,30697.3711,22708.9922,0.044,0.990,-0.040,192.000,0.000,0.000,0.000,0.000,0.000,0.000,0.000,0.000,0.000,1602542208.562420,2020-10-12 15:36:48.562419
170.000,14902.6006,-30809.7773,17588.1172,16000.6299,26228.3184,24469.4141,30671.0410,22437.8652,0.044,0.990,-0.040,192.000,0.000,0.000,0.000,0.000,0.000,0.000,0.000,0.000,0.000,1602542208.566350,2020-10-12 15:36:48.566353
171.000,14914.2900,-30710.8496,17057.1289,15863.5020,25423.3203,24261.9453,30443.3652,22027.5996,0.044,0.990,-0.040,192.000,0.000,0.000,0.000,0.000,0.000,0.000,0.000,0.000,0.000,1602542208.570290,2020-10-12 15:36:48.570287
172.000,14871.8672,-30826.8770,17235.6758,15686.8779,25771.4492,23958.9688,30437.7324,22223.4004,0.044,0.990,-0.040,192.000,0.000,0.000,0.000,0.000,0.000,0.000,0.000,0.000,0.000,1602542208.574220,2020-10-12 15:36:48.574220
173.000,14858.6123,-30940.7148,17808.1250,15797.4746,26656.5547,24115.0957,30671.0859,22682.0137,0.044,0.990,-0.040,192.000,0.000,0.000,0.000,0.000,0.000,0.000,0.000,0.000,0.000,1602542208.578150,2020-10-12 15:36:48.578154
174.000,14899.9629,-30829.4023,17677.1445,15992.4717,26381.9648,24446.0352,30702.3105,22520.0742,0.036,0.986,-0.040,192.000,1.000,32.000,30.000,208.000,254.000,192.000,0.000,0.000,0.000,1602542208.582090,2020-10-12 15:36:48.582087
175.000,14918.5596,-30695.8066,17103.3535,15897.5879,25495.6289,24322.9668,30477.0723,22060.5684,0.036,0.986,-0.040,192.000,0.000,0.000,0.000,0.000,0.000,0.000,0.000,0.000,0.000,1602542208.586010,2020-10-12 15:36:48.586007
176.000,14882.7070,-30784.3184,17141.4180,15693.5391,25615.9023,23983.1309,30410.3516,22139.5137,0.036,0.986,-0.040,192.000,0.000,0.000,0.000,0.000,0.000,0.000,0.000,0.000,0.000,1602542208.589930,2020-10-12 15:36:48.589927
177.000,14842.4072,-30944.1777,17732.1738,15739.7402,26548.3730,24046.8555,30628.2148,22626.6699,0.036,0.986,-0.040,192.000,0.000,0.000,0.000,0.000,0.000,0.000,0.000,0.000,0.000,1602542208.593850,2020-10-12 15:36:48.593847
178.000,14882.9307,-30862.7734,17760.6289,15955.2559,26516.9473,24408.2168,30721.0645,22593.6113,0.036,0.986,-0.040,192.000,0.000,0.000,0.000,0.000,0.000,0.000,0.000,0.000,0.000,1602542208.597770,2020-10-12 15:36:48.597767
179.000,14915.0508,-30707.7422,17187.2617,15923.8291,25607.9688,24380.4766,30519.5625,22120.8730,0.036,0.986,-0.040,192.000,0.000,0.000,0.000,0.000,0.000,0.000,0.000,0.000,0.000,1602542208.601690,2020-10-12 15:36:48.601687
180.000,14901.8184,-30741.9629,17072.7754,15714.7061,25487.4473,24019.9219,30389.2734,22071.1406,0.036,0.986,-0.040,192.000,0.000,0.000,0.000,0.000,0.000,0.000,0.000,0.000,0.000,1602542208.605610,2020-10-12 15:36:48.605607
181.000,14860.3555,-30911.2773,17639.3477,15708.7158,26390.5703,23977.6758,30569.6074,22545.9355,0.036,0.986,-0.040,192.000,0.000,0.000,0.000,0.000,0.000,0.000,0.000,0.000,0.000,1602542208.609530,2020-10-12 15:36:48.609527
182.000,14874.0127,-30890.0879,17823.4141,15922.3535,26612.1641,24332.1309,30712.8379,22645.6914,0.036,0.986,-0.040,192.000,0.000,0.000,0.000,0.000,0.000,0.000,0.000,0.000,0.000,1602542208.613450,2020-10-12 15:36:48.613446
183.000,14901.1475,-30737.2910,17285.7441,15942.0459,25745.7656,24401.5781,30550.6543,22193.0684,0.036,0.986,-0.040,192.000,0.000,0.000,0.000,0.000,0.000,0.000,0.000,0.000,0.000,1602542208.617370,2020-10-12 15:36:48.617366
184.000,14884.6074,-30746.5000,17029.1895,15727.7148,25407.5176,24050.6328,30382.9258,22029.6992,0.038,0.986,-0.036,192.000,1.000,48.000,30.000,208.000,254.000,224.000,0.000,0.000,0.000,1602542208.621290,2020-10-12 15:36:48.621286
185.000,14841.6250,-30911.4551,17521.1289,15663.5205,26221.7031,23907.7832,30518.4668,22459.4336,0.038,0.986,-0.036,192.000,0.000,0.000,0.000,0.000,0.000,0.000,0.000,0.000,0.000,1602542208.625210,2020-10-12 15:36:48.625206
186.000,14851.1465,-30930.1641,17844.8047,15868.3076,26673.8555,24228.4180,30703.6074,22681.8125,0.038,0.986,-0.036,192.000,0.000,0.000,0.000,0.000,0.000,0.000,0.000,0.000,0.000,1602542208.629130,2020-10-12 15:36:48.629126
187.000,14881.2988,-30773.0762,17385.5430,15949.2656,25905.2695,24391.0938,30585.9258,22277.2676,0.038,0.986,-0.036,192.000,0.000,0.000,0.000,0.000,0.000,0.000,0.000,0.000,0.000,1602542208.633050,2020-10-12 15:36:48.633046
188.000,14872.6045,-30733.8711,17012.7168,15755.9453,25364.8027,24080.6289,30385.5859,22012.4219,0.038,0.986,-0.036,192.000,0.000,0.000,0.000,0.000,0.000,0.000,0.000,0.000,0.000,1602542208.636970,2020-10-12 15:36:48.636966
189.000,14841.8486,-30876.0508,17410.3105,15644.4326,26031.8027,23860.5977,30461.6719,22366.1602,0.038,0.986,-0.036,192.000,0.000,0.000,0.000,0.000,0.000,0.000,0.000,0.000,0.000,1602542208.640890,2020-10-12 15:36:48.640886
190.000,14861.1826,-30916.1055,17861.3672,15829.1250,26688.4297,24132.4395,30672.9180,22694.4844,0.038,0.986,-0.036,192.000,0.000,0.000,0.000,0.000,0.000,0.000,0.000,0.000,0.000,1602542208.644940,2020-10-12 15:36:48.644935
191.000,14893.8828,-30784.1406,17509.7070,15961.2236,26078.5176,24382.0410,30611.5391,22365.2227,0.038,0.986,-0.036,192.000,0.000,0.000,0.000,0.000,0.000,0.000,0.000,0.000,0.000,1602542208.648990,2020-10-12 15:36:48.648985
192.000,14893.1680,-30705.4844,17031.0449,15793.1387,25369.7656,24128.4160,30393.1191,22006.6328,0.038,0.986,-0.036,192.000,0.000,0.000,0.000,0.000,0.000,0.000,0.000,0.000,0.000,1602542208.653040,2020-10-12 15:36:48.653035
193.000,14858.7236,-30825.7148,17298.4395,15642.6670,25850.7070,23844.3477,30418.0410,22266.3145,0.038,0.998,-0.044,192.000,1.000,48.000,31.000,48.000,254.000,160.000,0.000,0.000,0.000,1602542208.657080,2020-10-12 15:36:48.657084
194.000,14852.1973,-30920.8652,17831.6406,15787.3496,26664.1543,24051.2813,30647.1016,22680.2910,0.038,0.998,-0.044,192.000,0.000,0.000,0.000,0.000,0.000,0.000,0.000,0.000,0.000,1602542208.661130,2020-10-12 15:36:48.661134
195.000,14903.6064,-30784.7891,17608.5918,15971.3486,26247.5859,24364.1152,30643.2578,22446.4023,0.038,0.998,-0.044,192.000,0.000,0.000,0.000,0.000,0.000,0.000,0.000,0.000,0.000,1602542208.665180,2020-10-12 15:36:48.665184
196.000,14907.5176,-30684.5625,17061.9355,15846.9170,25415.3184,24188.3418,30417.3262,22019.7090,0.038,0.998,-0.044,192.000,0.000,0.000,0.000,0.000,0.000,0.000,0.000,0.000,0.000,1602542208.669230,2020-10-12 15:36:48.669233
197.000,14873.0068,-30783.1563,17193.8320,15662.1123,25681.7520,23862.0957,30383.2383,22170.7832,0.038,0.998,-0.044,192.000,0.000,0.000,0.000,0.000,0.000,0.000,0.000,0.000,0.000,1602542208.673280,2020-10-12 15:36:48.673283
198.000,14843.3232,-30928.3750,17785.3047,15755.6543,26592.5625,23990.5957,30620.1895,22645.9375,0.038,0.998,-0.044,192.000,0.000,0.000,0.000,0.000,0.000,0.000,0.000,0.000,0.000,1602542208.677330,2020-10-12 15:36:48.677333
199.000,14890.2627,-30825.6699,17713.3984,15963.8389,26402.7969,24342.0098,30674.9961,22531.9219,0.038,0.998,-0.044,192.000,0.000,0.000,0.000,0.000,0.000,0.000,0.000,0.000,0.000,1602542208.681380,2020-10-12 15:36:48.681382
200.000,14906.5117,-30695.2480,17142.6699,15891.6201,25507.4297,24260.7168,30463.3926,22070.2910,0.038,0.998,-0.044,192.000,0.000,0.000,0.000,0.000,0.000,0.000,0.000,0.000,0.000,1602542208.685430,2020-10-12 15:36:48.685432
201.000,14878.5049,-30762.5254,17122.6875,15682.4971,25542.9023,23906.7090,30372.1973,22097.5156,0.038,0.998,-0.044,192.000,0.000,0.000,0.000,0.000,0.000,0.000,0.000,0.000,0.000,1602542208.689480,2020-10-12 15:36:48.689481
202.000,14837.1543,-30930.3867,17704.3691,15713.4326,26470.0078,23930.3125,30579.7344,22580.0215,0.038,0.998,-0.044,192.000,0.000,0.000,0.000,0.000,0.000,0.000,0.000,0.000,0.000,1602542208.693530,2020-10-12 15:36:48.693531
203.000,14872.3809,-30862.7285,17777.0801,15931.6074,26520.5664,24292.6582,30688.2520,22587.1074,0.038,1.004,-0.046,192.000,1.000,48.000,31.000,96.000,254.000,144.000,0.000,0.000,0.000,1602542208.697580,2020-10-12 15:36:48.697581
204.000,14906.4668,-30705.2832,17205.5449,15917.8613,25615.2773,24298.7363,30494.1484,22114.7266,0.038,1.004,-0.046,192.000,0.000,0.000,0.000,0.000,0.000,0.000,0.000,0.000,0.000,1602542208.701630,2020-10-12 15:36:48.701631
205.000,14884.3389,-30729.8027,17041.3945,15702.9717,25417.9336,23937.5547,30352.3711,22030.9063,0.038,1.004,-0.046,192.000,0.000,0.000,0.000,0.000,0.000,0.000,0.000,0.000,0.000,1602542208.705370,2020-10-12 15:36:48.705369
206.000,14868.8496,-30866.4609,17582.1719,15682.1172,26284.7109,23847.3203,30510.3750,22484.2891,0.038,1.004,-0.046,192.000,0.000,0.000,0.000,0.000,0.000,0.000,0.000,0.000,0.000,1602542208.709110,2020-10-12 15:36:48.709107
207.000,14867.5527,-30886.2422,17824.0859,15902.5723,26593.7031,24207.2520,30682.2383,22636.6836,0.038,1.004,-0.046,192.000,0.000,0.000,0.000,0.000,0.000,0.000,0.000,0.000,0.000,1602542208.712850,2020-10-12 15:36:48.712846
208.000,14910.6025,-30713.8438,17313.6152,15951.4785,25759.2441,24324.2402,30535.1641,22195.7500,0.038,1.004,-0.046,192.000,0.000,0.000,0.000,0.000,0.000,0.000,0.000,0.000,0.000,1602542208.716580,2020-10-12 15:36:48.716584
209.000,14911.5186,-30699.4492,17013.3867,15740.8135,25343.3672,23981.5664,30344.9961,21986.3828,0.038,1.004,-0.046,192.000,0.000,0.000,0.000,0.000,0.000,0.000,0.000,0.000,0.000,1602542208.720320,2020-10-12 15:36:48.720323
210.000,14868.6484,-30861.9238,17474.1914,15654.4902,26108.6250,23807.4688,30462.1855,22397.2520,0.038,1.004,-0.046,192.000,0.000,0.000,0.000,0.000,0.000,0.000,0.000,0.000,0.000,1602542208.724060,2020-10-12 15:36:48.724061
211.000,14879.9131,-30881.5488,17840.2910,15857.7354,26631.0742,24123.1426,30654.8359,22653.2461,0.038,1.004,-0.046,192.000,0.000,0.000,0.000,0.000,0.000,0.000,0.000,0.000,0.000,1602542208.727800,2020-10-12 15:36:48.727800
212.000,14914.5361,-30734.8555,17414.8027,15966.2529,25914.8125,24334.7227,30555.3477,22272.7969,0.038,1.004,-0.046,192.000,0.000,0.000,0.000,0.000,0.000,0.000,0.000,0.000,0.000,1602542208.731540,2020-10-12 15:36:48.731538
213.000,14894.5986,-30702.7344,16999.6406,15775.7041,25315.9434,24045.0664,30353.8477,21978.7148,0.036,0.998,-0.048,192.000,1.000,32.000,31.000,48.000,254.000,128.000,0.000,0.000,0.000,1602542208.735280,2020-10-12 15:36:48.735276
214.000,14852.3086,-30846.4121,17348.6641,15642.1523,25916.6680,23786.1445,30412.2520,22301.3633,0.036,0.998,-0.048,192.000,0.000,0.000,0.000,0.000,0.000,0.000,0.000,0.000,0.000,1602542208.739020,2020-10-12 15:36:48.739015
215.000,14852.1973,-30917.6016,17828.8906,15812.3613,26631.8574,24038.4727,30634.0938,22661.1816,0.036,0.998,-0.048,192.000,0.000,0.000,0.000,0.000,0.000,0.000,0.000,0.000,0.000,1602542208.742750,2020-10-12 15:36:48.742753
216.000,14896.4092,-30780.6309,17525.9570,15972.2881,26089.2461,24328.9785,30602.1738,22369.6914,0.036,0.998,-0.048,192.000,0.000,0.000,0.000,0.000,0.000,0.000,0.000,0.000,0.000,1602542208.746490,2020-10-12 15:36:48.746492
217.000,14909.1719,-30680.7188,17022.1484,15819.9834,25331.2754,24093.8164,30374.8574,21987.6113,0.036,0.998,-0.048,192.000,0.000,0.000,0.000,0.000,0.000,0.000,0.000,0.000,0.000,1602542208.750230,2020-10-12 15:36:48.750230
218.000,14858.1201,-30813.7109,17241.7988,15640.0742,25735.9766,23769.7598,30370.0078,22210.4141,0.036,0.998,-0.048,192.000,0.000,0.000,0.000,0.000,0.000,0.000,0.000,0.000,0.000,1602542208.753970,2020-10-12 15:36:48.753969
219.000,14844.6650,-30925.8047,17793.2168,15761.1982,26581.4316,23931.8340,30590.7305,22637.2656,0.036,0.998,-0.048,192.000,0.000,0.000,0.000,0.000,0.000,0.000,0.000,0.000,0.000,1602542208.757710,2020-10-12 15:36:48.757707
220.000,14891.3350,-30810.4473,17626.0938,15957.3125,26239.2480,24268.4941,30606.5781,22437.4844,0.036,0.998,-0.048,192.000,0.000,0.000,0.000,0.000,0.000,0.000,0.000,0.000,0.000,1602542208.761450,2020-10-12 15:36:48.761445
221.000,14904.0088,-30696.2969,17068.8652,15848.4365,25384.3828,24123.5879,30386.8164,22005.3145,0.036,0.998,-0.048,192.000,0.000,0.000,0.000,0.000,0.000,0.000,0.000,0.000,0.000,1602542208.765540,2020-10-12 15:36:48.765535
222.000,14870.5928,-30781.3906,17146.9395,15645.2373,25573.9941,23765.0449,30328.3438,22121.7441,0.036,0.998,-0.048,192.000,0.000,0.000,0.000,0.000,0.000,0.000,0.000,0.000,0.000,1602542208.769620,2020-10-12 15:36:48.769624
223.000,14848.6885,-30918.9219,17734.4316,15715.0195,26485.9453,23833.1504,30538.1367,22590.6172,0.034,1.000,-0.044,192.000,1.000,16.000,31.000,64.000,254.000,160.000,0.000,0.000,0.000,1602542208.773710,2020-10-12 15:36:48.773714
224.000,14883.6016,-30843.3047,17719.5234,15933.8203,26385.0039,24201.5293,30618.5137,22517.3477,0.034,1.000,-0.044,192.000,0.000,0.000,0.000,0.000,0.000,0.000,0.000,0.000,0.000,1602542208.777800,2020-10-12 15:36:48.777803
225.000,14909.9766,-30692.0742,17148.1230,15883.3721,25489.4805,24157.1172,30419.2930,22053.1465,0.034,1.000,-0.044,192.000,0.000,0.000,0.000,0.000,0.000,0.000,0.000,0.000,0.000,1602542208.781890,2020-10-12 15:36:48.781893
226.000,14873.5879,-30750.2324,17080.8457,15659.9668,25443.8398,23781.3613,30299.3750,22036.0469,0.034,1.000,-0.044,192.000,0.000,0.000,0.000,0.000,0.000,0.000,0.000,0.000,0.000,1602542208.785980,2020-10-12 15:36:48.785982
227.000,14834.3154,-30919.8594,17647.1035,15662.3359,26351.1641,23746.0000,30482.1680,22508.0938,0.034,1.000,-0.044,192.000,0.000,0.000,0.000,0.000,0.000,0.000,0.000,0.000,0.000,1602542208.790070,2020-10-12 15:36:48.790071
228.000,14885.1885,-30854.6152,17779.3359,15893.4756,26486.6816,24107.9863,30604.4316,22562.4082,0.034,1.000,-0.044,192.000,0.000,0.000,0.000,0.000,0.000,0.000,0.000,0.000,0.000,1602542208.794160,2020-10-12 15:36:48.794161
229.000,14917.9336,-30698.5996,17236.0996,15908.5410,25609.3086,24167.8223,30430.6699,22107.2832,0.034,1.000,-0.044,192.000,0.000,0.000,0.000,0.000,0.000,0.000,0.000,0.000,0.000,1602542208.798250,2020-10-12 15:36:48.798250
230.000,14890.2627,-30722.9414,17022.3730,15687.9287,25336.6406,23804.2500,30268.8203,21982.6484,0.034,1.000,-0.044,192.000,0.000,0.000,0.000,0.000,0.000,0.000,0.000,0.000,0.000,1602542208.802340,2020-10-12 15:36:48.802340
231.000,14855.7061,-30877.3477,17527.5000,15634.7539,26165.7559,23669.4453,30402.8633,22416.1621,0.034,1.000,-0.044,192.000,0.000,0.000,0.000,0.000,0.000,0.000,0.000,0.000,0.000,1602542208.806430,2020-10-12 15:36:48.806429
232.000,14862.8594,-30893.7754,17805.4434,15850.3818,26545.5781,24020.8828,30585.9922,22597.1211,0.034,1.000,-0.044,192.000,0.000,0.000,0.000,0.000,0.000,0.000,0.000,0.000,0.000,1602542208.810520,2020-10-12 15:36:48.810518
233.000,14892.6982,-30739.5254,17325.9531,15922.1309,25754.2148,24192.2305,30466.8574,22175.5898,0.030,0.986,-0.046,192.000,0.000,240.000,30.000,208.000,254.000,144.000,0.000,0.000,0.000,1602542208.814610,2020-10-12 15:36:48.814608
234.000,14884.8086,-30710.0215,16982.2070,15711.5322,25271.7090,23864.4648,30270.9219,21937.8125,0.030,0.986,-0.046,192.000,0.000,0.000,0.000,0.000,0.000,0.000,0.000,0.000,0.000,1602542208.818700,2020-10-12 15:36:48.818697
235.000,14851.8174,-30851.9102,17399.7598,15602.6123,25975.0957,23640.2324,30357.9375,22319.8027,0.030,0.986,-0.046,192.000,0.000,0.000,0.000,0.000,0.000,0.000,0.000,0.000,0.000,1602542208.822790,2020-10-12 15:36:48.822787
236.000,14850.4541,-30909.0859,17811.5234,15797.8105,26569.2266,23943.5898,30568.8926,22619.6074,0.030,0.986,-0.046,192.000,0.000,0.000,0.000,0.000,0.000,0.000,0.000,0.000,0.000,1602542208.826710,2020-10-12 15:36:48.826714
237.000,14881.2764,-30771.7578,17430.3145,15926.8691,25916.2441,24202.2676,30499.1328,22268.5957,0.030,0.986,-0.046,192.000,0.000,0.000,0.000,0.000,0.000,0.000,0.000,0.000,0.000,1602542208.830640,2020-10-12 15:36:48.830642
238.000,14891.0674,-30692.6328,16979.0547,15745.7080,25254.8555,23927.6543,30279.1016,21935.0176,0.030,0.986,-0.046,192.000,0.000,0.000,0.000,0.000,0.000,0.000,0.000,0.000,0.000,1602542208.834570,2020-10-12 15:36:48.834569
239.000,14840.7305,-30838.6777,17281.6973,15585.2227,25787.8320,23635.1133,30314.5293,22225.5898,0.030,0.986,-0.046,192.000,0.000,0.000,0.000,0.000,0.000,0.000,0.000,0.000,0.000,1602542208.838500,2020-10-12 15:36:48.838497
240.000,14836.7520,-30928.4883,17793.3066,15739.5615,26550.8535,23861.6270,30539.8359,22614.6680,0.030,0.986,-0.046,192.000,0.000,0.000,0.000,0.000,0.000,0.000,0.000,0.000,0.000,1602542208.842420,2020-10-12 15:36:48.842424
241.000,14875.3535,-30807.3633,17537.7598,15917.8838,26079.4551,24186.1738,30527.8320,22356.0352,0.030,0.986,-0.046,192.000,0.000,0.000,0.000,0.000,0.000,0.000,0.000,0.000,0.000,1602542208.846350,2020-10-12 15:36:48.846352
242.000,14871.1514,-30716.0566,17012.2930,15776.9561,25289.6348,23992.4961,30307.6230,21953.9727,0.030,0.986,-0.046,192.000,0.000,0.000,0.000,0.000,0.000,0.000,0.000,0.000,0.000,1602542208.850280,2020-10-12 15:36:48.850279
243.000,14846.2070,-30800.7480,17174.6113,15587.5244,25612.9980,23643.1152,30273.2246,22130.8867,0.038,0.982,-0.044,192.000,1.000,48.000,30.000,176.000,254.000,160.000,0.000,0.000,0.000,1602542208.854210,2020-10-12 15:36:48.854207
244.000,14827.9678,-30928.5098,17741.5625,15696.6016,26485.6758,23772.3320,30494.2383,22577.9219,0.038,0.982,-0.044,192.000,0.000,0.000,0.000,0.000,0.000,0.000,0.000,0.000,0.000,1602542208.858130,2020-10-12 15:36:48.858134
245.000,14854.7451,-30840.6895,17628.9551,15910.7979,26231.4023,24144.7773,30546.2051,22430.6895,0.038,0.982,-0.044,192.000,0.000,0.000,0.000,0.000,0.000,0.000,0.000,0.000,0.000,1602542208.862060,2020-10-12 15:36:48.862062
246.000,14866.0557,-30715.5195,17065.5781,15826.8008,25360.4004,24048.1973,30339.5410,21988.3047,0.038,0.982,-0.044,192.000,0.000,0.000,0.000,0.000,0.000,0.000,0.000,0.000,0.000,1602542208.865990,2020-10-12 15:36:48.865989
247.000,14840.7305,-30780.1836,17085.8516,15616.0010,25462.4590,23675.3027,30255.0078,22054.5547,0.038,0.982,-0.044,192.000,0.000,0.000,0.000,0.000,0.000,0.000,0.000,0.000,0.000,1602542208.869920,2020-10-12 15:36:48.869917
248.000,14834.0254,-30911.5000,17663.7109,15664.2363,26372.2852,23702.9727,30447.8574,22522.7129,0.038,0.982,-0.044,192.000,0.000,0.000,0.000,0.000,0.000,0.000,0.000,0.000,0.000,1602542208.873840,2020-10-12 15:36:48.873844
249.000,14866.9941,-30847.9102,17699.8320,15894.9951,26347.7441,24083.8691,30542.4277,22490.1895,0.038,0.982,-0.044,192.000,0.000,0.000,0.000,0.000,0.000,0.000,0.000,0.000,0.000,1602542208.877770,2020-10-12 15:36:48.877772
250.000,14875.0635,-30719.3418,17142.2676,15868.9785,25459.1055,24098.1523,30363.9727,22036.0020,0.038,0.982,-0.044,192.000,0.000,0.000,0.000,0.000,0.000,0.000,0.000,0.000,0.000,1602542208.881700,2020-10-12 15:36:48.881700
251.000,14845.2236,-30762.5703,17023.1777,15643.8066,25341.2441,23732.3652,30240.2324,21992.8633,0.038,0.982,-0.044,192.000,0.000,0.000,0.000,0.000,0.000,0.000,0.000,0.000,0.000,1602542208.885730,2020-10-12 15:36:48.885730
252.000,14820.4131,-30910.3613,17573.1641,15624.2266,26223.4004,23659.5215,30403.9824,22448.1699,0.046,0.982,-0.048,192.000,1.000,112.000,30.000,176.000,254.000,128.000,0.000,0.000,0.000,1602542208.889760,2020-10-12 15:36:48.889760
253.000,14845.5137,-30887.8965,17763.3340,15849.7109,26444.1465,24035.8359,30553.7383,22539.3203,0.046,0.982,-0.048,192.000,0.000,0.000,0.000,0.000,0.000,0.000,0.000,0.000,0.000,1602542208.893790,2020-10-12 15:36:48.893790
254.000,14872.3135,-30730.7871,17241.3750,15889.0723,25594.8691,24149.7402,30408.2070,22102.5664,0.046,0.982,-0.048,192.000,0.000,0.000,0.000,0.000,0.000,0.000,0.000,0.000,0.000,1602542208.897820,2020-10-12 15:36:48.897820
255.000,14848.4873,-30734.6094,16981.9824,15668.0361,25251.0098,23800.3594,30236.0527,21943.5332,0.046,0.982,-0.048,192.000,0.000,0.000,0.000,0.000,0.000,0.000,0.000,0.000,0.000,1602542208.901850,2020-10-12 15:36:48.901850
0.000,14824.9277,-30875.3359,17460.6465,15591.0791,26039.1113,23629.6152,30354.2051,22352.7500,0.046,0.982,-0.048,192.000,0.000,0.000,0.000,0.000,0.000,0.000,0.000,0.000,0.000,1602542208.905880,2020-10-12 15:36:48.905881
1.000,14830.3818,-30905.2637,17791.7637,15806.2588,26494.6172,23971.5977,30546.8086,22578.0781,0.046,0.982,-0.048,192.000,0.000,0.000,0.000,0.000,0.000,0.000,0.000,0.000,0.000,1602542208.909910,2020-10-12 15:36:48.909911
2.000,14868.8047,-30745.2695,17345.6465,15908.9434,25745.8105,24182.1504,30442.9180,22182.5195,0.046,0.982,-0.048,192.000,0.000,0.000,0.000,0.000,0.000,0.000,0.000,0.000,0.000,1602542208.913940,2020-10-12 15:36:48.913941
3.000,14863.5518,-30706.9824,16967.4766,15708.4482,25202.6855,23870.1641,30234.3086,21909.6699,0.046,0.982,-0.048,192.000,0.000,0.000,0.000,0.000,0.000,0.000,0.000,0.000,0.000,1602542208.917970,2020-10-12 15:36:48.917971
4.000,14816.4346,-30862.6172,17346.3398,15575.9463,25850.3047,23614.6387,30292.1777,22250.2676,0.046,0.982,-0.048,192.000,0.000,0.000,0.000,0.000,0.000,0.000,0.000,0.000,0.000,1602542208.922000,2020-10-12 15:36:48.922002
5.000,14835.3662,-30906.1133,17790.4453,15765.4893,26502.3281,23884.7598,30498.1504,22572.4453,0.046,0.982,-0.048,192.000,0.000,0.000,0.000,0.000,0.000,0.000,0.000,0.000,0.000,1602542208.926030,2020-10-12 15:36:48.926032
6.000,14896.7891,-30748.3555,17451.4141,15926.9141,25903.1230,24167.3535,30452.3730,22249.5293,0.054,0.988,-0.054,192.000,1.000,176.000,30.000,224.000,254.000,80.000,0.000,0.000,0.000,1602542208.930060,2020-10-12 15:36:48.930062
7.000,14893.5928,-30678.3711,16980.7539,15765.7129,25198.0820,23929.1953,30235.8516,21895.3438,0.054,0.988,-0.054,192.000,0.000,0.000,0.000,0.000,0.000,0.000,0.000,0.000,0.000,1602542208.934090,2020-10-12 15:36:48.934092
8.000,14841.8926,-30814.5391,17239.3867,15590.4307,25664.2949,23612.5840,30243.8770,22147.7617,0.054,0.988,-0.054,192.000,0.000,0.000,0.000,0.000,0.000,0.000,0.000,0.000,0.000,1602542208.938120,2020-10-12 15:36:48.938122
9.000,14823.9219,-30929.9844,17774.0625,15726.7988,26473.5840,23807.8262,30471.8867,22565.5156,0.054,0.988,-0.054,192.000,0.000,0.000,0.000,0.000,0.000,0.000,0.000,0.000,0.000,1602542208.942150,2020-10-12 15:36:48.942152
10.000,14870.9727,-30806.5586,17571.3535,15922.3096,26072.1914,24152.3555,30479.8652,22346.6699,0.054,0.988,-0.054,192.000,0.000,0.000,0.000,0.000,0.000,0.000,0.000,0.000,0.000,1602542208.946160,2020-10-12 15:36:48.946159
11.000,14894.4863,-30677.4785,17037.6836,15809.4551,25249.3340,23992.9199,30260.1699,21926.7031,0.054,0.988,-0.054,192.000,0.000,0.000,0.000,0.000,0.000,0.000,0.000,0.000,0.000,1602542208.950170,2020-10-12 15:36:48.950165
12.000,14852.6445,-30780.1172,17163.0098,15607.4404,25503.8086,23636.8789,30217.5898,22070.0898,0.054,0.988,-0.054,192.000,0.000,0.000,0.000,0.000,0.000,0.000,0.000,0.000,0.000,1602542208.954170,2020-10-12 15:36:48.954171
13.000,14825.4424,-30920.9766,17739.9980,15689.9854,26395.1289,23730.1543,30436.4355,22529.1719,0.054,0.988,-0.054,192.000,0.000,0.000,0.000,0.000,0.000,0.000,0.000,0.000,0.000,1602542208.958180,2020-10-12 15:36:48.958178
14.000,14865.3623,-30829.2227,17674.5527,15911.7148,26209.5879,24101.1914,30495.5566,22414.2617,0.054,0.988,-0.054,192.000,0.000,0.000,0.000,0.000,0.000,0.000,0.000,0.000,0.000,1602542208.962180,2020-10-12 15:36:48.962184
15.000,14871.7549,-30711.0273,17116.2285,15847.4531,25332.3496,24048.0840,30297.6328,21966.1992,0.054,0.988,-0.054,192.000,0.000,0.000,0.000,0.000,0.000,0.000,0.000,0.000,0.000,1602542208.966190,2020-10-12 15:36:48.966191
16.000,14836.5059,-30777.7246,17091.3730,15622.8633,25363.8652,23674.9219,30198.5254,21999.2129,0.050,0.994,-0.050,192.000,1.000,144.000,31.000,16.000,254.000,112.000,0.000,0.000,0.000,1602542208.970200,2020-10-12 15:36:48.970197
17.000,14824.9951,-30910.8301,17655.2852,15641.5264,26263.0313,23654.3145,30379.3496,22461.9375,0.050,0.994,-0.050,192.000,0.000,0.000,0.000,0.000,0.000,0.000,0.000,0.000,0.000,1602542208.974200,2020-10-12 15:36:48.974203
18.000,14867.4854,-30852.5820,17740.5566,15875.4824,26315.0215,24030.8965,30490.8633,22468.2852,0.050,0.994,-0.050,192.000,0.000,0.000,0.000,0.000,0.000,0.000,0.000,0.000,0.000,1602542208.978210,2020-10-12 15:36:48.978209
19.000,14871.4424,-30726.3828,17194.9727,15874.6328,25442.9902,24088.0723,30326.4219,22024.7383,0.050,0.994,-0.050,192.000,0.000,0.000,0.000,0.000,0.000,0.000,0.000,0.000,0.000,1602542208.982220,2020-10-12 15:36:48.982216
20.000,14830.7842,-30767.9805,17019.8477,15642.0859,25247.4785,23718.4180,30180.1074,21938.3262,0.050,0.994,-0.050,192.000,0.000,0.000,0.000,0.000,0.000,0.000,0.000,0.000,0.000,1602542208.986220,2020-10-12 15:36:48.986222
21.000,14805.4375,-30909.1543,17532.3496,15593.5156,26089.4238,23586.7441,30319.1797,22375.9727,0.050,0.994,-0.050,192.000,0.000,0.000,0.000,0.000,0.000,0.000,0.000,0.000,0.000,1602542208.990230,2020-10-12 15:36:48.990229
22.000,14840.7529,-30888.9023,17761.1426,15820.7432,26376.4648,23934.7832,30477.5195,22509.7480,0.050,0.994,-0.050,192.000,0.000,0.000,0.000,0.000,0.000,0.000,0.000,0.000,0.000,1602542208.994240,2020-10-12 15:36:48.994235
23.000,14871.3525,-30737.4688,17266.0508,15888.8486,25560.2910,24092.3184,30351.7461,22082.4727,0.050,0.994,-0.050,192.000,0.000,0.000,0.000,0.000,0.000,0.000,0.000,0.000,0.000,1602542208.998240,2020-10-12 15:36:48.998241
24.000,14868.4473,-30707.4063,16965.5098,15678.7871,25147.0078,23753.5996,30170.0703,21875.4512,0.050,0.994,-0.050,192.000,0.000,0.000,0.000,0.000,0.000,0.000,0.000,0.000,0.000,1602542209.002250,2020-10-12 15:36:49.002248
25.000,14821.7539,-30871.2891,17402.0176,15571.0967,25880.3906,23527.0215,30261.3320,22262.9844,0.050,0.994,-0.050,192.000,0.000,0.000,0.000,0.000,0.000,0.000,0.000,0.000,0.000,1602542209.006220,2020-10-12 15:36:49.006222
26.000,14822.1563,-30913.8477,17768.4961,15774.2959,26395.0391,23831.4063,30459.7500,22522.4883,0.036,0.990,-0.048,192.000,1.000,32.000,30.000,240.000,254.000,128.000,0.000,0.000,0.000,1602542209.010200,2020-10-12 15:36:49.010195
27.000,14863.6641,-30768.6504,17366.8125,15906.4844,25703.0977,24089.6816,30388.0449,22158.3789,0.036,0.990,-0.048,192.000,0.000,0.000,0.000,0.000,0.000,0.000,0.000,0.000,0.000,1602542209.014170,2020-10-12 15:36:49.014169
28.000,14862.6807,-30710.3125,16958.2461,15718.9980,25110.3730,23809.8145,30177.9609,21860.6973,0.036,0.990,-0.048,192.000,0.000,0.000,0.000,0.000,0.000,0.000,0.000,0.000,0.000,1602542209.018140,2020-10-12 15:36:49.018144
29.000,14825.2188,-30838.5898,17291.6445,15565.5977,25685.4609,23508.5586,30209.8125,22165.0176,0.036,0.990,-0.048,192.000,0.000,0.000,0.000,0.000,0.000,0.000,0.000,0.000,0.000,1602542209.022120,2020-10-12 15:36:49.022118
30.000,14821.1729,-30920.6875,17763.3340,15728.6094,26378.9922,23740.9707,30421.5723,22514.4863,0.036,0.990,-0.048,192.000,0.000,0.000,0.000,0.000,0.000,0.000,0.000,0.000,0.000,1602542209.026090,2020-10-12 15:36:49.026092
31.000,14878.9746,-30771.2207,17474.9277,15911.2227,25845.2773,24057.3164,30394.5488,22227.1543,0.036,0.990,-0.048,192.000,0.000,0.000,0.000,0.000,0.000,0.000,0.000,0.000,0.000,1602542209.030070,2020-10-12 15:36:49.030066
32.000,14881.4111,-30682.8418,16988.8672,15772.2178,25113.5020,23861.1797,30182.6543,21858.0391,0.036,0.990,-0.048,192.000,0.000,0.000,0.000,0.000,0.000,0.000,0.000,0.000,0.000,1602542209.034040,2020-10-12 15:36:49.034039
33.000,14828.7725,-30803.0723,17195.5547,15575.7012,25506.2012,23517.4316,30170.5625,22071.4297,0.036,0.990,-0.048,192.000,0.000,0.000,0.000,0.000,0.000,0.000,0.000,0.000,0.000,1602542209.038010,2020-10-12 15:36:49.038013
34.000,14814.9141,-30915.6797,17730.3867,15683.3242,26327.3594,23655.2520,30384.5352,22492.3809,0.036,0.990,-0.048,192.000,0.000,0.000,0.000,0.000,0.000,0.000,0.000,0.000,0.000,1602542209.041990,2020-10-12 15:36:49.041987
35.000,14862.3447,-30807.3184,17572.7852,15898.0127,25998.8555,24019.1387,30414.1074,22308.1582,0.036,0.990,-0.048,192.000,0.000,0.000,0.000,0.000,0.000,0.000,0.000,0.000,0.000,1602542209.045960,2020-10-12 15:36:49.045961
36.000,14863.5068,-30703.4941,17038.4219,15805.6328,25173.4941,23918.0195,30210.2363,21888.0117,0.054,0.984,-0.052,192.000,1.000,176.000,30.000,192.000,254.000,96.000,0.000,0.000,0.000,1602542209.049940,2020-10-12 15:36:49.049936
37.000,14821.9326,-30780.8320,17107.9805,15587.5029,25355.0586,23547.1602,30145.9316,21996.1504,0.054,0.984,-0.052,192.000,0.000,0.000,0.000,0.000,0.000,0.000,0.000,0.000,0.000,1602542209.053910,2020-10-12 15:36:49.053910
38.000,14809.6621,-30902.3359,17666.8398,15637.3467,26234.3750,23572.1719,30334.6465,22445.3965,0.054,0.984,-0.052,192.000,0.000,0.000,0.000,0.000,0.000,0.000,0.000,0.000,0.000,1602542209.057880,2020-10-12 15:36:49.057883
39.000,14842.7646,-30842.6348,17654.2793,15869.0449,26128.4277,23953.3809,30417.5938,22376.0840,0.054,0.984,-0.052,192.000,0.000,0.000,0.000,0.000,0.000,0.000,0.000,0.000,0.000,1602542209.061860,2020-10-12 15:36:49.061857
40.000,14865.1162,-30702.4668,17111.7344,15846.3135,25263.4160,23960.3770,30244.0996,21939.9805,0.054,0.984,-0.052,192.000,0.000,0.000,0.000,0.000,0.000,0.000,0.000,0.000,0.000,1602542209.065880,2020-10-12 15:36:49.065878
41.000,14827.8789,-30757.9219,17037.4160,15620.2705,25221.1035,23585.5156,30128.7207,21931.0176,0.054,0.984,-0.052,192.000,0.000,0.000,0.000,0.000,0.000,0.000,0.000,0.000,0.000,1602542209.069900,2020-10-12 15:36:49.069899
42.000,14790.6406,-30916.8418,17574.6621,15600.9805,26095.2578,23508.4473,30295.1738,22382.9688,0.054,0.984,-0.052,192.000,0.000,0.000,0.000,0.000,0.000,0.000,0.000,0.000,0.000,1602542209.073920,2020-10-12 15:36:49.073920
43.000,14823.7432,-30882.0859,17706.7832,15835.1826,26227.6699,23885.3418,30426.7813,22434.4219,0.054,0.984,-0.052,192.000,0.000,0.000,0.000,0.000,0.000,0.000,0.000,0.000,0.000,1602542209.077940,2020-10-12 15:36:49.077941
44.000,14859.6406,-30727.3223,17192.2910,15877.6953,25382.1934,24001.8379,30283.6621,22001.0215,0.054,0.984,-0.052,192.000,0.000,0.000,0.000,0.000,0.000,0.000,0.000,0.000,0.000,1602542209.081960,2020-10-12 15:36:49.081962
45.000,14834.7627,-30737.5137,16984.7988,15660.3018,25124.2324,23657.7559,30137.4590,21885.5977,0.054,0.984,-0.052,192.000,0.000,0.000,0.000,0.000,0.000,0.000,0.000,0.000,0.000,1602542209.085980,2020-10-12 15:36:49.085983
46.000,14800.8330,-30889.4844,17466.3906,15587.1895,25931.4199,23486.5859,30256.6172,22305.0723,0.056,0.992,-0.042,192.000,1.000,192.000,31.000,0.000,254.000,176.000,0.000,0.000,0.000,1602542209.090000,2020-10-12 15:36:49.090004
47.000,14819.6533,-30897.6426,17740.3770,15808.3379,26293.0938,23823.4043,30429.4180,22477.0703,0.056,0.992,-0.042,192.000,0.000,0.000,0.000,0.000,0.000,0.000,0.000,0.000,0.000,1602542209.094030,2020-10-12 15:36:49.094025
48.000,14871.3975,-30734.5195,17287.6875,15912.2285,25525.6680,24030.6055,30329.1250,22080.4375,0.056,0.992,-0.042,192.000,0.000,0.000,0.000,0.000,0.000,0.000,0.000,0.000,0.000,1602542209.098050,2020-10-12 15:36:49.098046
49.000,14850.0742,-30716.2793,16961.8887,15711.2197,25067.1230,23728.7461,30144.0078,21854.3730,0.056,0.992,-0.042,192.000,0.000,0.000,0.000,0.000,0.000,0.000,0.000,0.000,0.000,1602542209.102070,2020-10-12 15:36:49.102067
50.000,14803.0459,-30862.8184,17360.7773,15582.2051,25750.2363,23473.6445,30217.0996,22211.3750,0.056,0.992,-0.042,192.000,0.000,0.000,0.000,0.000,0.000,0.000,0.000,0.000,0.000,1602542209.106090,2020-10-12 15:36:49.106088
51.000,14810.0420,-30911.7695,17754.6602,15770.1836,26320.9434,23751.2754,30418.9805,22497.8125,0.056,0.992,-0.042,192.000,0.000,0.000,0.000,0.000,0.000,0.000,0.000,0.000,0.000,1602542209.110110,2020-10-12 15:36:49.110109
52.000,14855.6846,-30772.3613,17393.0547,15926.4219,25684.7246,24045.8496,30368.2852,22165.6875,0.056,0.992,-0.042,192.000,0.000,0.000,0.000,0.000,0.000,0.000,0.000,0.000,0.000,1602542209.114130,2020-10-12 15:36:49.114130
53.000,14837.5566,-30725.9590,16970.9629,15758.8066,25060.4629,23813.2793,30170.9648,21859.0898,0.056,0.992,-0.042,192.000,0.000,0.000,0.000,0.000,0.000,0.000,0.000,0.000,0.000,1602542209.118150,2020-10-12 15:36:49.118151
54.000,14789.4561,-30850.5918,17256.3945,15580.8867,25580.6328,23498.2324,30188.9355,22135.5801,0.056,0.992,-0.042,192.000,0.000,0.000,0.000,0.000,0.000,0.000,0.000,0.000,0.000,1602542209.122170,2020-10-12 15:36:49.122172
55.000,14785.4102,-30943.4629,17738.2988,15717.6563,26315.1992,23691.9102,30397.4316,22504.8086,0.052,0.986,-0.046,192.000,1.000,160.000,30.000,208.000,254.000,144.000,0.000,0.000,0.000,1602542209.126190,2020-10-12 15:36:49.126192
56.000,14836.0371,-30815.2539,17495.3359,15912.5420,25855.4473,24046.3418,30401.7910,22260.8398,0.052,0.986,-0.046,192.000,0.000,0.000,0.000,0.000,0.000,0.000,0.000,0.000,0.000,1602542209.130210,2020-10-12 15:36:49.130212
57.000,14846.0059,-30710.8926,17002.8145,15796.0889,25100.2715,23903.2012,30205.4316,21883.3398,0.052,0.986,-0.046,192.000,0.000,0.000,0.000,0.000,0.000,0.000,0.000,0.000,0.000,1602542209.134230,2020-10-12 15:36:49.134232
58.000,14805.4600,-30810.1797,17167.7031,15594.1855,25430.7637,23556.0781,30177.7148,22065.0156,0.052,0.986,-0.046,192.000,0.000,0.000,0.000,0.000,0.000,0.000,0.000,0.000,0.000,1602542209.138250,2020-10-12 15:36:49.138252
59.000,14793.5234,-30924.8438,17708.8848,15682.1396,26277.0000,23655.4316,30382.4570,22492.0898,0.052,0.986,-0.046,192.000,0.000,0.000,0.000,0.000,0.000,0.000,0.000,0.000,0.000,1602542209.142270,2020-10-12 15:36:49.142273
60.000,14854.7900,-30807.5195,17601.3281,15911.4688,26017.1172,24033.1992,30431.7422,22340.2539,0.052,0.986,-0.046,192.000,0.000,0.000,0.000,0.000,0.000,0.000,0.000,0.000,0.000,1602542209.146290,2020-10-12 15:36:49.146293
61.000,14859.3047,-30699.1582,17072.3281,15850.4258,25187.1074,23990.1719,30250.8496,21924.0645,0.052,0.986,-0.046,192.000,0.000,0.000,0.000,0.000,0.000,0.000,0.000,0.000,0.000,1602542209.150310,2020-10-12 15:36:49.150313
62.000,14810.6680,-30781.6367,17105.1191,15629.1211,25311.2715,23628.0957,30168.5508,21998.7656,0.052,0.986,-0.046,192.000,0.000,0.000,0.000,0.000,0.000,0.000,0.000,0.000,0.000,1602542209.154330,2020-10-12 15:36:49.154333
63.000,14787.1094,-30922.2520,17677.4805,15653.6641,26203.1953,23627.3125,30354.4727,22453.8906,0.052,0.986,-0.046,192.000,0.000,0.000,0.000,0.000,0.000,0.000,0.000,0.000,0.000,1602542209.158350,2020-10-12 15:36:49.158353
64.000,14831.6787,-30853.2520,17721.4902,15891.5537,26174.4063,24014.0195,30460.8672,22423.2246,0.052,0.986,-0.046,192.000,0.000,0.000,0.000,0.000,0.000,0.000,0.000,0.000,0.000,1602542209.162370,2020-10-12 15:36:49.162374
65.000,14853.2480,-30713.8438,17187.5527,15889.4746,25317.9980,24067.1289,30296.9844,21985.8906,0.048,1.000,-0.044,192.000,1.000,128.000,31.000,64.000,254.000,160.000,0.000,0.000,0.000,1602542209.166390,2020-10-12 15:36:49.166394
66.000,14815.4736,-30757.0723,17079.2793,15666.6279,25217.7285,23711.3555,30174.2734,21944.1602,0.048,1.000,-0.044,192.000,0.000,0.000,0.000,0.000,0.000,0.000,0.000,0.000,0.000,1602542209.170410,2020-10-12 15:36:49.170414
67.000,14784.2705,-30911.7910,17610.5820,15633.4580,26082.2715,23612.0469,30336.1660,22393.4961,0.048,1.000,-0.044,192.000,0.000,0.000,0.000,0.000,0.000,0.000,0.000,0.000,0.000,1602542209.174430,2020-10-12 15:36:49.174434
68.000,14818.5576,-30889.2832,17785.2383,15862.9873,26286.5000,23979.9336,30479.7773,22481.4512,0.048,1.000,-0.044,192.000,0.000,0.000,0.000,0.000,0.000,0.000,0.000,0.000,0.000,1602542209.178450,2020-10-12 15:36:49.178454
69.000,14842.6084,-30748.1309,17282.8379,15922.4658,25465.8555,24134.9883,30348.9512,22058.8906,0.048,1.000,-0.044,192.000,0.000,0.000,0.000,0.000,0.000,0.000,0.000,0.000,0.000,1602542209.182480,2020-10-12 15:36:49.182475
70.000,14811.8525,-30757.6973,17041.3711,15707.7324,25157.4688,23815.2012,30194.1426,21913.3145,0.048,1.000,-0.044,192.000,0.000,0.000,0.000,0.000,0.000,0.000,0.000,0.000,0.000,1602542209.186490,2020-10-12 15:36:49.186494
71.000,14779.9561,-30900.8828,17501.1016,15611.8887,25935.0859,23615.8242,30297.0742,22313.8359,0.048,1.000,-0.044,192.000,0.000,0.000,0.000,0.000,0.000,0.000,0.000,0.000,0.000,1602542209.190510,2020-10-12 15:36:49.190512
72.000,14802.3525,-30919.4805,17807.9688,15818.5752,26362.5410,23928.4141,30472.2891,22515.4473,0.048,1.000,-0.044,192.000,0.000,0.000,0.000,0.000,0.000,0.000,0.000,0.000,0.000,1602542209.194530,2020-10-12 15:36:49.194531
73.000,14827.3867,-30794.3105,17381.8105,15936.2568,25635.7969,24178.2617,30398.0137,22139.8496,0.048,1.000,-0.044,192.000,0.000,0.000,0.000,0.000,0.000,0.000,0.000,0.000,0.000,1602542209.198550,2020-10-12 15:36:49.198550
74.000,14815.8535,-30759.3301,17025.8594,15747.3848,25129.7969,23907.7148,30216.2266,21897.2441,0.048,1.000,-0.044,192.000,0.000,0.000,0.000,0.000,0.000,0.000,0.000,0.000,0.000,1602542209.202570,2020-10-12 15:36:49.202569
75.000,14778.5039,-30894.8262,17394.4844,15604.5566,25772.0742,23629.9727,30265.6914,22234.6426,0.060,0.990,-0.048,192.000,1.000,224.000,30.000,240.000,254.000,128.000,0.000,0.000,0.000,1602542209.206590,2020-10-12 15:36:49.206588
76.000,14773.6084,-30970.2852,17821.8730,15774.4297,26402.0586,23881.8984,30471.6172,22545.5781,0.060,0.990,-0.048,192.000,0.000,0.000,0.000,0.000,0.000,0.000,0.000,0.000,0.000,1602542209.210610,2020-10-12 15:36:49.210607
77.000,14828.3027,-30821.9590,17491.9824,15942.2471,25814.5195,24193.3711,30434.4023,22232.4297,0.060,0.990,-0.048,192.000,0.000,0.000,0.000,0.000,0.000,0.000,0.000,0.000,0.000,1602542209.214630,2020-10-12 15:36:49.214626
78.000,14824.1006,-30761.5195,17042.2656,15793.7646,25147.0527,23994.3516,30245.4414,21902.1602,0.060,0.990,-0.048,192.000,0.000,0.000,0.000,0.000,0.000,0.000,0.000,0.000,0.000,1602542209.218650,2020-10-12 15:36:49.218645
79.000,14770.8594,-30886.7344,17292.4707,15609.2510,25619.5469,23670.6074,30253.5762,22154.8477,0.060,0.990,-0.048,192.000,0.000,0.000,0.000,0.000,0.000,0.000,0.000,0.000,0.000,1602542209.222660,2020-10-12 15:36:49.222664
80.000,14777.9893,-30971.8047,17799.5195,15738.5107,26399.7559,23832.6133,30461.9629,22547.7012,0.060,0.990,-0.048,192.000,0.000,0.000,0.000,0.000,0.000,0.000,0.000,0.000,0.000,1602542209.226680,2020-10-12 15:36:49.226683
81.000,14832.9521,-30847.7090,17594.4199,15950.8525,25999.1914,24199.5391,30486.1465,22329.5938,0.060,0.990,-0.048,192.000,0.000,0.000,0.000,0.000,0.000,0.000,0.000,0.000,0.000,1602542209.230700,2020-10-12 15:36:49.230702
82.000,14834.6514,-30742.6777,17080.1074,15847.2295,25210.6875,24080.8066,30287.6855,21930.9277,0.060,0.990,-0.048,192.000,0.000,0.000,0.000,0.000,0.000,0.000,0.000,0.000,0.000,1602542209.234720,2020-10-12 15:36:49.234721
83.000,14789.0088,-30840.9590,17200.2246,15631.4912,25474.5723,23717.4805,30230.8223,22072.4590,0.060,0.990,-0.048,192.000,0.000,0.000,0.000,0.000,0.000,0.000,0.000,0.000,0.000,1602542209.238740,2020-10-12 15:36:49.238739
84.000,14769.9424,-30965.7480,17755.4648,15701.2285,26345.4629,23789.0957,30430.0430,22513.7715,0.060,0.990,-0.048,192.000,0.000,0.000,0.000,0.000,0.000,0.000,0.000,0.000,0.000,1602542209.242760,2020-10-12 15:36:49.242758
85.000,14813.3057,-30884.2090,17687.4492,15929.7969,26157.4180,24180.7637,30504.9004,22400.8281,0.070,0.986,-0.050,192.000,2.000,48.000,30.000,208.000,254.000,112.000,0.000,0.000,0.000,1602542209.246770,2020-10-12 15:36:49.246772
86.000,14822.8721,-30765.9688,17148.1016,15886.1885,25312.3652,24176.3379,30339.0059,21977.4414,0.070,0.986,-0.050,192.000,0.000,0.000,0.000,0.000,0.000,0.000,0.000,0.000,0.000,1602542209.250790,2020-10-12 15:36:49.250786
87.000,14790.8643,-30819.7461,17131.2930,15665.0410,25363.2832,23815.7598,30253.5547,22018.9941,0.070,0.986,-0.050,192.000,0.000,0.000,0.000,0.000,0.000,0.000,0.000,0.000,0.000,1602542209.254800,2020-10-12 15:36:49.254800
88.000,14772.2002,-30953.6328,17681.6152,15673.1318,26250.3574,23774.4102,30423.1816,22471.9297,0.070,0.986,-0.050,192.000,0.000,0.000,0.000,0.000,0.000,0.000,0.000,0.000,0.000,1602542209.258810,2020-10-12 15:36:49.258814
89.000,14805.0576,-30907.9238,17756.9395,15908.5625,26294.6582,24154.2109,30536.2148,22478.0762,0.070,0.986,-0.050,192.000,0.000,0.000,0.000,0.000,0.000,0.000,0.000,0.000,0.000,1602542209.262830,2020-10-12 15:36:49.262828
90.000,14826.2246,-30770.4824,17227.5840,15926.7354,25440.9336,24238.0742,30384.6914,22041.4570,0.070,0.986,-0.050,192.000,0.000,0.000,0.000,0.000,0.000,0.000,0.000,0.000,0.000,1602542209.266840,2020-10-12 15:36:49.266841
91.000,14811.5615,-30779.8926,17073.2891,15705.9893,25268.6016,23889.1855,30250.4258,21962.5547,0.070,0.986,-0.050,192.000,0.000,0.000,0.000,0.000,0.000,0.000,0.000,0.000,0.000,1602542209.270860,2020-10-12 15:36:49.270855
92.000,14782.2139,-30930.1426,17585.0996,15647.1592,26108.4688,23746.7383,30382.1445,22393.3848,0.070,0.986,-0.050,192.000,0.000,0.000,0.000,0.000,0.000,0.000,0.000,0.000,0.000,1602542209.274870,2020-10-12 15:36:49.274869
93.000,14813.4170,-30910.1152,17804.8184,15869.9834,26381.6074,24087.1992,30534.9629,22518.4648,0.070,0.986,-0.050,192.000,0.000,0.000,0.000,0.000,0.000,0.000,0.000,0.000,0.000,1602542209.278880,2020-10-12 15:36:49.278883
94.000,14838.8535,-30777.6797,17327.2949,15948.2148,25584.4316,24269.6797,30425.8184,22111.1719,0.070,0.986,-0.050,192.000,0.000,0.000,0.000,0.000,0.000,0.000,0.000,0.000,0.000,1602542209.282900,2020-10-12 15:36:49.282896
95.000,14818.0889,-30771.8027,17045.8418,15738.2871,25204.5859,23954.4980,30257.8691,21928.0449,0.056,0.980,-0.048,192.000,1.000,192.000,30.000,160.000,254.000,128.000,0.000,0.000,0.000,1602542209.286910,2020-10-12 15:36:49.286910
96.000,14767.5293,-30927.4824,17479.3086,15621.2314,25941.9473,23723.7598,30343.7891,22309.4766,0.056,0.980,-0.048,192.000,0.000,0.000,0.000,0.000,0.000,0.000,0.000,0.000,0.000,1602542209.290920,2020-10-12 15:36:49.290924
97.000,14790.7080,-30943.4414,17831.5273,15821.8154,26434.9824,24015.6523,30529.4414,22550.1602,0.056,0.980,-0.048,192.000,0.000,0.000,0.000,0.000,0.000,0.000,0.000,0.000,0.000,1602542209.294940,2020-10-12 15:36:49.294938
98.000,14831.0752,-30803.4961,17430.9629,15958.1172,25742.7051,24282.0840,30461.8047,22190.7227,0.056,0.980,-0.048,192.000,0.000,0.000,0.000,0.000,0.000,0.000,0.000,0.000,0.000,1602542209.298950,2020-10-12 15:36:49.298952
99.000,14817.6641,-30759.2402,17034.7109,15776.1289,25171.7734,24023.1406,30266.0039,21906.4746,0.056,0.980,-0.048,192.000,0.000,0.000,0.000,0.000,0.000,0.000,0.000,0.000,0.000,1602542209.302970,2020-10-12 15:36:49.302966
100.000,14788.8525,-30882.0410,17364.3105,15614.5703,25754.1934,23714.1719,30293.2734,22207.6426,0.056,0.980,-0.048,192.000,0.000,0.000,0.000,0.000,0.000,0.000,0.000,0.000,0.000,1602542209.306890,2020-10-12 15:36:49.306891
101.000,14786.3047,-30958.5957,17821.3809,15770.8984,26435.6074,23929.3516,30498.0371,22551.0996,0.056,0.980,-0.048,192.000,0.000,0.000,0.000,0.000,0.000,0.000,0.000,0.000,0.000,1602542209.310820,2020-10-12 15:36:49.310817
102.000,14830.6729,-30830.9004,17528.8848,15955.0322,25902.0059,24259.6445,30483.7324,22272.8652,0.056,0.980,-0.048,192.000,0.000,0.000,0.000,0.000,0.000,0.000,0.000,0.000,0.000,1602542209.314740,2020-10-12 15:36:49.314743
103.000,14826.8281,-30753.5410,17053.0391,15812.8076,25186.5938,24075.8906,30276.8223,21915.7051,0.056,0.980,-0.048,192.000,0.000,0.000,0.000,0.000,0.000,0.000,0.000,0.000,0.000,1602542209.318670,2020-10-12 15:36:49.318669
104.000,14786.8633,-30859.6445,17259.4121,15615.8672,25584.3418,23726.1309,30259.9922,22123.6660,0.056,0.980,-0.048,192.000,0.000,0.000,0.000,0.000,0.000,0.000,0.000,0.000,0.000,1602542209.322590,2020-10-12 15:36:49.322594
105.000,14768.0879,-30972.2969,17786.5781,15720.9648,26398.2578,23852.7520,30472.9375,22535.7871,0.044,0.990,-0.060,192.000,1.000,96.000,30.000,240.000,254.000,32.000,0.000,0.000,0.000,1602542209.326520,2020-10-12 15:36:49.326520
106.000,14808.7676,-30865.9922,17624.1270,15935.8994,26061.5957,24222.3379,30506.7988,22353.4863,0.044,0.990,-0.060,192.000,0.000,0.000,0.000,0.000,0.000,0.000,0.000,0.000,0.000,1602542209.330450,2020-10-12 15:36:49.330446
107.000,14814.2441,-30760.4023,17094.9707,15851.8115,25245.0195,24133.7148,30310.0156,21942.6621,0.044,0.990,-0.060,192.000,0.000,0.000,0.000,0.000,0.000,0.000,0.000,0.000,0.000,1602542209.334370,2020-10-12 15:36:49.334371
108.000,14766.5010,-30850.5254,17169.1797,15629.1885,25438.5195,23762.0488,30241.0820,22049.9727,0.044,0.990,-0.060,192.000,0.000,0.000,0.000,0.000,0.000,0.000,0.000,0.000,0.000,1602542209.338300,2020-10-12 15:36:49.338297
109.000,14742.7412,-30987.9883,17726.5645,15670.5391,26319.9824,23789.4297,30441.4883,22489.3418,0.044,0.990,-0.060,192.000,0.000,0.000,0.000,0.000,0.000,0.000,0.000,0.000,0.000,1602542209.342220,2020-10-12 15:36:49.342223
110.000,14799.1563,-30895.8770,17708.0566,15906.5518,26203.9316,24174.7305,30525.7539,22411.8691,0.044,0.990,-0.060,192.000,0.000,0.000,0.000,0.000,0.000,0.000,0.000,0.000,0.000,1602542209.346150,2020-10-12 15:36:49.346148
111.000,14821.7764,-30760.7383,17172.2402,15889.3633,25350.0293,24197.5508,30357.3105,21988.8398,0.044,0.990,-0.060,192.000,0.000,0.000,0.000,0.000,0.000,0.000,0.000,0.000,0.000,1602542209.350070,2020-10-12 15:36:49.350074
112.000,14791.4229,-30806.7598,17114.4609,15669.6230,25330.9180,23833.7539,30250.0898,22000.1738,0.044,0.990,-0.060,192.000,0.000,0.000,0.000,0.000,0.000,0.000,0.000,0.000,0.000,1602542209.354000,2020-10-12 15:36:49.354000
113.000,14778.5479,-30937.6289,17659.5098,15656.5244,26209.1621,23745.5098,30394.9746,22448.6152,0.044,0.990,-0.060,192.000,0.000,0.000,0.000,0.000,0.000,0.000,0.000,0.000,0.000,1602542209.357930,2020-10-12 15:36:49.357926
114.000,14788.2490,-30927.0352,17793.9102,15887.3730,26339.2949,24118.7383,30533.2188,22506.5527,0.044,1.000,-0.056,192.000,1.000,96.000,31.000,64.000,254.000,64.000,0.000,0.000,0.000,1602542209.361850,2020-10-12 15:36:49.361851
115.000,14810.9131,-30784.6543,17282.9277,15928.2100,25504.8594,24245.8750,30405.3223,22077.5996,0.044,1.000,-0.056,192.000,0.000,0.000,0.000,0.000,0.000,0.000,0.000,0.000,0.000,1602542209.365910,2020-10-12 15:36:49.365910
116.000,14794.7979,-30795.4941,17081.3809,15708.3359,25260.0176,23900.3848,30253.3750,21957.8613,0.044,1.000,-0.056,192.000,0.000,0.000,0.000,0.000,0.000,0.000,0.000,0.000,0.000,1602542209.369970,2020-10-12 15:36:49.369967
117.000,14753.3574,-30952.8516,17567.0391,15626.0596,26073.4199,23721.2578,30370.3418,22377.4043,0.044,1.000,-0.056,192.000,0.000,0.000,0.000,0.000,0.000,0.000,0.000,0.000,0.000,1602542209.374030,2020-10-12 15:36:49.374026
118.000,14762.9463,-30968.1621,17828.9121,15836.6348,26429.3945,24054.7461,30538.0918,22546.0469,0.044,1.000,-0.056,192.000,0.000,0.000,0.000,0.000,0.000,0.000,0.000,0.000,0.000,1602542209.378080,2020-10-12 15:36:49.378083
119.000,14811.8750,-30805.4414,17371.4395,15940.3916,25661.9258,24272.2734,30443.5449,22151.1152,0.044,1.000,-0.056,192.000,0.000,0.000,0.000,0.000,0.000,0.000,0.000,0.000,0.000,1602542209.382140,2020-10-12 15:36:49.382142
120.000,14809.4385,-30769.8574,17048.4805,15746.3115,25209.7266,23968.2227,30261.5332,21931.1055,0.044,1.000,-0.056,192.000,0.000,0.000,0.000,0.000,0.000,0.000,0.000,0.000,0.000,1602542209.386200,2020-10-12 15:36:49.386199
121.000,14761.6055,-30925.7832,17447.5469,15610.8379,25900.2617,23701.7227,30326.5781,22292.8477,0.044,1.000,-0.056,192.000,0.000,0.000,0.000,0.000,0.000,0.000,0.000,0.000,0.000,1602542209.390260,2020-10-12 15:36:49.390258
122.000,14767.4844,-30976.9688,17833.6289,15793.0938,26463.8164,23965.1152,30515.3613,22568.8008,0.044,1.000,-0.056,192.000,0.000,0.000,0.000,0.000,0.000,0.000,0.000,0.000,0.000,1602542209.394320,2020-10-12 15:36:49.394315
123.000,14787.5557,-30860.6055,17468.1777,15940.7051,25825.0703,24259.5313,30465.6719,22232.8105,0.044,1.000,-0.056,192.000,0.000,0.000,0.000,0.000,0.000,0.000,0.000,0.000,0.000,1602542209.398370,2020-10-12 15:36:49.398374
124.000,14778.3027,-30800.6797,17044.3672,15770.1162,25202.7754,24022.0215,30274.0293,21925.7871,0.044,0.988,-0.058,192.000,1.000,96.000,30.000,224.000,254.000,48.000,0.000,0.000,0.000,1602542209.402430,2020-10-12 15:36:49.402431
125.000,14739.9463,-30920.4414,17335.6543,15591.2578,25727.4160,23696.7383,30293.1387,22200.1094,0.044,0.988,-0.058,192.000,0.000,0.000,0.000,0.000,0.000,0.000,0.000,0.000,0.000,1602542209.406490,2020-10-12 15:36:49.406490
126.000,14758.4316,-30983.8984,17818.3184,15736.8350,26454.2949,23879.8438,30490.5273,22559.2578,0.044,0.988,-0.058,192.000,0.000,0.000,0.000,0.000,0.000,0.000,0.000,0.000,0.000,1602542209.410550,2020-10-12 15:36:49.410547
127.000,14794.4854,-30873.7031,17573.8340,15936.1455,25990.9648,24233.2461,30499.5137,22315.1309,0.044,0.988,-0.058,192.000,0.000,0.000,0.000,0.000,0.000,0.000,0.000,0.000,0.000,1602542209.414610,2020-10-12 15:36:49.414606
128.000,14786.1250,-30790.1309,17080.6660,15816.2949,25243.8574,24091.9395,30308.2266,21943.2656,0.044,0.988,-0.058,192.000,0.000,0.000,0.000,0.000,0.000,0.000,0.000,0.000,0.000,1602542209.418660,2020-10-12 15:36:49.418663
129.000,14761.5605,-30868.3164,17240.9277,15612.2686,25571.8027,23728.4766,30263.6133,22115.3516,0.044,0.988,-0.058,192.000,0.000,0.000,0.000,0.000,0.000,0.000,0.000,0.000,0.000,1602542209.422720,2020-10-12 15:36:49.422722
130.000,14764.6904,-30973.1465,17781.6172,15703.3066,26409.2559,23816.9902,30462.0508,22539.0059,0.044,0.988,-0.058,192.000,0.000,0.000,0.000,0.000,0.000,0.000,0.000,0.000,0.000,1602542209.426700,2020-10-12 15:36:49.426704
131.000,14809.5723,-30880.2520,17669.5449,15933.9326,26147.4727,24201.7520,30516.5898,22394.3008,0.044,0.988,-0.058,192.000,0.000,0.000,0.000,0.000,0.000,0.000,0.000,0.000,0.000,1602542209.430690,2020-10-12 15:36:49.430686
132.000,14803.5146,-30772.7852,17136.5000,15870.1631,25319.9883,24162.5703,30338.1777,21977.8887,0.044,0.988,-0.058,192.000,0.000,0.000,0.000,0.000,0.000,0.000,0.000,0.000,0.000,1602542209.434670,2020-10-12 15:36:49.434669
133.000,14769.4512,-30845.1387,17159.9258,15644.1191,25438.4746,23788.2676,30254.6504,22045.1445,0.044,0.988,-0.058,192.000,0.000,0.000,0.000,0.000,0.000,0.000,0.000,0.000,0.000,1602542209.438650,2020-10-12 15:36:49.438651
134.000,14746.3613,-30982.1758,17712.3926,15664.1016,26324.3184,23770.9902,30428.9707,22492.9844,0.040,0.990,-0.058,192.000,1.000,64.000,30.000,240.000,254.000,48.000,0.000,0.000,0.000,1602542209.442630,2020-10-12 15:36:49.442633
135.000,14794.8877,-30912.0586,17744.9375,15904.8750,26292.1992,24157.6074,30528.9727,22456.2148,0.040,0.990,-0.058,192.000,0.000,0.000,0.000,0.000,0.000,0.000,0.000,0.000,0.000,1602542209.446620,2020-10-12 15:36:49.446615
136.000,14811.0029,-30781.9043,17221.3027,15907.5352,25445.4941,24223.0098,30376.8242,22025.3633,0.040,0.990,-0.058,192.000,0.000,0.000,0.000,0.000,0.000,0.000,0.000,0.000,0.000,1602542209.450600,2020-10-12 15:36:49.450598
137.000,14786.2598,-30817.2207,17114.2832,15683.7939,25349.5586,23863.5703,30253.3984,21988.3496,0.040,0.990,-0.058,192.000,0.000,0.000,0.000,0.000,0.000,0.000,0.000,0.000,0.000,1602542209.454580,2020-10-12 15:36:49.454580
138.000,14751.2793,-30971.2695,17643.5723,15645.7510,26217.3203,23748.6152,30404.3398,22435.8535,0.040,0.990,-0.058,192.000,0.000,0.000,0.000,0.000,0.000,0.000,0.000,0.000,0.000,1602542209.458560,2020-10-12 15:36:49.458563
139.000,14786.4160,-30940.8711,17816.1055,15879.1924,26416.6992,24113.8652,30549.8711,22524.2539,0.040,0.990,-0.058,192.000,0.000,0.000,0.000,0.000,0.000,0.000,0.000,0.000,0.000,1602542209.462550,2020-10-12 15:36:49.462545
140.000,14800.5645,-30811.4316,17319.5605,15936.5918,25603.9902,24281.9512,30433.6641,22107.6406,0.040,0.990,-0.058,192.000,0.000,0.000,0.000,0.000,0.000,0.000,0.000,0.000,0.000,1602542209.466530,2020-10-12 15:36:49.466527
141.000,14776.1787,-30812.8398,17071.9707,15715.0195,25292.4063,23949.8711,30273.2910,21958.7773,0.040,0.990,-0.058,192.000,0.000,0.000,0.000,0.000,0.000,0.000,0.000,0.000,0.000,1602542209.470510,2020-10-12 15:36:49.470510
142.000,14743.4336,-30959.0430,17526.6719,15611.5303,26064.0996,23729.9961,30365.4922,22353.8887,0.040,0.990,-0.058,192.000,0.000,0.000,0.000,0.000,0.000,0.000,0.000,0.000,0.000,1602542209.474490,2020-10-12 15:36:49.474492
143.000,14757.3145,-30978.7129,17832.8477,15820.2959,26488.1348,24042.5859,30542.2715,22557.2227,0.040,0.990,-0.058,192.000,0.000,0.000,0.000,0.000,0.000,0.000,0.000,0.000,0.000,1602542209.478470,2020-10-12 15:36:49.478474
144.000,14798.2852,-30829.6699,17404.3867,15946.6055,25759.9160,24292.9023,30464.7344,22180.1270,0.038,0.996,-0.058,192.000,1.000,48.000,31.000,32.000,254.000,48.000,0.000,0.000,0.000,1602542209.482460,2020-10-12 15:36:49.482456
145.000,14790.1045,-30792.7461,17050.5586,15758.9629,25255.0332,24016.5234,30279.8633,21931.2188,0.038,0.996,-0.058,192.000,0.000,0.000,0.000,0.000,0.000,0.000,0.000,0.000,0.000,1602542209.486470,2020-10-12 15:36:49.486469
146.000,14745.6240,-30937.2051,17414.2891,15606.1436,25892.1250,23721.5039,30327.3828,22263.2969,0.038,0.996,-0.058,192.000,0.000,0.000,0.000,0.000,0.000,0.000,0.000,0.000,0.000,1602542209.490480,2020-10-12 15:36:49.490482
147.000,14751.3457,-30995.3418,17828.5996,15774.2285,26508.6094,23958.2520,30524.7695,22568.2871,0.038,0.996,-0.058,192.000,0.000,0.000,0.000,0.000,0.000,0.000,0.000,0.000,0.000,1602542209.494500,2020-10-12 15:36:49.494495
148.000,14794.4629,-30864.3828,17497.4375,15944.7500,25916.6016,24278.1504,30496.1152,22252.7695,0.038,0.996,-0.058,192.000,0.000,0.000,0.000,0.000,0.000,0.000,0.000,0.000,0.000,1602542209.498510,2020-10-12 15:36:49.498508
149.000,14786.6846,-30797.0371,17046.6914,15785.2041,25244.7070,24070.1680,30296.3125,21914.0957,0.038,0.996,-0.058,192.000,0.000,0.000,0.000,0.000,0.000,0.000,0.000,0.000,0.000,1602542209.502520,2020-10-12 15:36:49.502521
150.000,14740.7959,-30914.7637,17290.9512,15587.5469,25702.7168,23719.8047,30285.0039,22157.4180,0.038,0.996,-0.058,192.000,0.000,0.000,0.000,0.000,0.000,0.000,0.000,0.000,0.000,1602542209.506530,2020-10-12 15:36:49.506534
151.000,14748.5303,-30994.9844,17791.0273,15711.9121,26464.6426,23862.4766,30478.2109,22536.3242,0.038,0.996,-0.058,192.000,0.000,0.000,0.000,0.000,0.000,0.000,0.000,0.000,0.000,1602542209.510550,2020-10-12 15:36:49.510546
152.000,14791.5342,-30885.4609,17587.2461,15927.7627,26061.5527,24232.4414,30505.8164,22319.0215,0.038,0.996,-0.058,192.000,0.000,0.000,0.000,0.000,0.000,0.000,0.000,0.000,0.000,1602542209.514560,2020-10-12 15:36:49.514559
153.000,14794.8877,-30785.3242,17080.5762,15828.9463,25277.7207,24119.0742,30317.4355,21936.6934,0.038,0.996,-0.058,192.000,0.000,0.000,0.000,0.000,0.000,0.000,0.000,0.000,0.000,1602542209.518570,2020-10-12 15:36:49.518572
154.000,14751.1670,-30872.8770,17200.7402,15612.1113,25539.7285,23744.1016,30263.5684,22090.2051,0.042,0.992,-0.052,192.000,1.000,80.000,31.000,0.000,254.000,96.000,0.000,0.000,0.000,1602542209.522590,2020-10-12 15:36:49.522585
155.000,14742.5615,-30997.5996,17746.3672,15679.0557,26396.5156,23790.2578,30450.4727,22529.6406,0.042,0.992,-0.052,192.000,0.000,0.000,0.000,0.000,0.000,0.000,0.000,0.000,0.000,1602542209.526600,2020-10-12 15:36:49.526598
156.000,14775.9111,-30926.8105,17682.3750,15910.3730,26208.9844,24178.9766,30519.6523,22415.4238,0.042,0.992,-0.052,192.000,0.000,0.000,0.000,0.000,0.000,0.000,0.000,0.000,0.000,1602542209.530610,2020-10-12 15:36:49.530611
157.000,14779.1074,-30804.8828,17145.1953,15865.7148,25368.7598,24172.3164,30342.0664,21986.5391,0.042,0.992,-0.052,192.000,0.000,0.000,0.000,0.000,0.000,0.000,0.000,0.000,0.000,1602542209.534620,2020-10-12 15:36:49.534624
158.000,14751.7930,-30854.7266,17124.6758,15637.5254,25413.2168,23796.9844,30247.8105,22022.9277,0.042,0.992,-0.052,192.000,0.000,0.000,0.000,0.000,0.000,0.000,0.000,0.000,0.000,1602542209.538640,2020-10-12 15:36:49.538637
159.000,14734.2920,-30987.1602,17672.3164,15638.9111,26287.1934,23737.2832,30412.7207,22469.1133,0.042,0.992,-0.052,192.000,0.000,0.000,0.000,0.000,0.000,0.000,0.000,0.000,0.000,1602542209.542650,2020-10-12 15:36:49.542649
160.000,14774.2793,-30934.5898,17751.9121,15882.5898,26329.2363,24119.9668,30532.9063,22476.4668,0.042,0.992,-0.052,192.000,0.000,0.000,0.000,0.000,0.000,0.000,0.000,0.000,0.000,1602542209.546580,2020-10-12 15:36:49.546583
161.000,14779.0850,-30815.6563,17230.8926,15903.1982,25489.6816,24223.2109,30396.0020,22052.3652,0.042,0.992,-0.052,192.000,0.000,0.000,0.000,0.000,0.000,0.000,0.000,0.000,0.000,1602542209.550520,2020-10-12 15:36:49.550518
162.000,14751.5693,-30836.2871,17073.3340,15675.2998,25316.5469,23862.8340,30256.3262,21972.0762,0.042,0.992,-0.052,192.000,0.000,0.000,0.000,0.000,0.000,0.000,0.000,0.000,0.000,1602542209.554450,2020-10-12 15:36:49.554451
163.000,14727.4521,-30981.3047,17577.4336,15612.6484,26145.9297,23700.8730,30380.4004,22397.2969,0.042,0.992,-0.052,192.000,0.000,0.000,0.000,0.000,0.000,0.000,0.000,0.000,0.000,1602542209.558390,2020-10-12 15:36:49.558386
164.000,14750.9658,-30969.5918,17796.7480,15833.9971,26415.5820,24043.6133,30524.1445,22519.1582,0.042,0.998,-0.054,192.000,1.000,80.000,31.000,48.000,254.000,80.000,0.000,0.000,0.000,1602542209.562320,2020-10-12 15:36:49.562319
165.000,14785.5215,-30823.4785,17325.8203,15922.6445,25624.1738,24237.2480,30418.8008,22112.3574,0.042,0.998,-0.054,192.000,0.000,0.000,0.000,0.000,0.000,0.000,0.000,0.000,0.000,1602542209.566250,2020-10-12 15:36:49.566253
166.000,14766.4111,-30812.8398,17052.2793,15717.7236,25246.6738,23923.6523,30260.4160,21934.9727,0.042,0.998,-0.054,192.000,0.000,0.000,0.000,0.000,0.000,0.000,0.000,0.000,0.000,1602542209.570190,2020-10-12 15:36:49.570188
167.000,14733.7334,-30951.1738,17482.3262,15596.0635,25971.6973,23670.4297,30333.3730,22308.4258,0.042,0.998,-0.054,192.000,0.000,0.000,0.000,0.000,0.000,0.000,0.000,0.000,0.000,1602542209.574120,2020-10-12 15:36:49.574121
168.000,14762.3877,-30964.5625,17828.2207,15797.6758,26455.8359,23956.9121,30510.4199,22540.8613,0.042,0.998,-0.054,192.000,0.000,0.000,0.000,0.000,0.000,0.000,0.000,0.000,0.000,1602542209.578060,2020-10-12 15:36:49.578056
169.000,14810.2207,-30818.2715,17438.0488,15948.7734,25775.1582,24239.4375,30449.4668,22188.7109,0.042,0.998,-0.054,192.000,0.000,0.000,0.000,0.000,0.000,0.000,0.000,0.000,0.000,1602542209.581990,2020-10-12 15:36:49.581990
170.000,14787.1533,-30783.4922,17051.2520,15771.2334,25218.6895,23989.1660,30265.2227,21919.1035,0.042,0.998,-0.054,192.000,0.000,0.000,0.000,0.000,0.000,0.000,0.000,0.000,0.000,1602542209.585920,2020-10-12 15:36:49.585923
171.000,14741.8467,-30915.9258,17369.5391,15598.0303,25791.9668,23670.2285,30291.5977,22218.8184,0.042,0.998,-0.054,192.000,0.000,0.000,0.000,0.000,0.000,0.000,0.000,0.000,0.000,1602542209.589860,2020-10-12 15:36:49.589858
172.000,14747.8818,-30987.2051,17816.5527,15746.8926,26457.3125,23870.5215,30481.2520,22547.2773,0.042,0.998,-0.054,192.000,0.000,0.000,0.000,0.000,0.000,0.000,0.000,0.000,0.000,1602542209.593790,2020-10-12 15:36:49.593791
173.000,14777.3633,-30880.5664,17530.7637,15929.2832,25933.7676,24212.2813,30474.6797,22273.2441,0.046,0.998,-0.048,192.000,1.000,112.000,31.000,48.000,254.000,128.000,0.000,0.000,0.000,1602542209.597730,2020-10-12 15:36:49.597726
174.000,14771.0156,-30800.0313,17057.8223,15790.2773,25226.7598,24039.4336,30280.3320,21924.0645,0.046,0.998,-0.048,192.000,0.000,0.000,0.000,0.000,0.000,0.000,0.000,0.000,0.000,1602542209.601660,2020-10-12 15:36:49.601660
175.000,14724.2783,-30909.9805,17264.1953,15585.4238,25621.1113,23676.2188,30248.5254,22132.0488,0.046,0.998,-0.048,192.000,0.000,0.000,0.000,0.000,0.000,0.000,0.000,0.000,0.000,1602542209.605680,2020-10-12 15:36:49.605676
176.000,14712.3203,-31016.3965,17784.8125,15684.8672,26420.1191,23787.8438,30439.7227,22530.1777,0.046,0.998,-0.048,192.000,0.000,0.000,0.000,0.000,0.000,0.000,0.000,0.000,0.000,1602542209.609690,2020-10-12 15:36:49.609693
177.000,14767.8643,-30893.7969,17627.6797,15912.0049,26085.4453,24170.9082,30489.2539,22348.0117,0.046,0.998,-0.048,192.000,0.000,0.000,0.000,0.000,0.000,0.000,0.000,0.000,0.000,1602542209.613710,2020-10-12 15:36:49.613709
178.000,14783.3535,-30782.8887,17107.9570,15836.5234,25280.5820,24095.6035,30308.9414,21950.8867,0.046,0.998,-0.048,192.000,0.000,0.000,0.000,0.000,0.000,0.000,0.000,0.000,0.000,1602542209.617730,2020-10-12 15:36:49.617726
179.000,14737.3984,-30873.4121,17179.1699,15613.6768,25467.6445,23716.5625,30235.8066,22051.0898,0.046,0.998,-0.048,192.000,0.000,0.000,0.000,0.000,0.000,0.000,0.000,0.000,0.000,1602542209.621740,2020-10-12 15:36:49.621743
180.000,14723.6973,-30998.8730,17723.9707,15650.4453,26329.1016,23722.9121,30412.2520,22487.9336,0.046,0.998,-0.048,192.000,0.000,0.000,0.000,0.000,0.000,0.000,0.000,0.000,0.000,1602542209.625760,2020-10-12 15:36:49.625760
181.000,14755.0791,-30936.6230,17707.5430,15881.1602,26219.1758,24112.0781,30497.0313,22426.9355,0.046,0.998,-0.048,192.000,0.000,0.000,0.000,0.000,0.000,0.000,0.000,0.000,0.000,1602542209.629780,2020-10-12 15:36:49.629776
182.000,14769.4961,-30800.4785,17176.0410,15864.5078,25375.6211,24144.6211,30335.8320,22001.3359,0.046,0.998,-0.048,192.000,0.000,0.000,0.000,0.000,0.000,0.000,0.000,0.000,0.000,1602542209.633790,2020-10-12 15:36:49.633793
183.000,14749.4463,-30835.5488,17110.6836,15638.3076,25342.4746,23766.2520,30218.0371,21988.7969,0.052,0.986,-0.050,192.000,1.000,160.000,30.000,208.000,254.000,112.000,0.000,0.000,0.000,1602542209.637810,2020-10-12 15:36:49.637809
184.000,14736.5273,-30965.1445,17647.8867,15618.1240,26200.9824,23668.0156,30366.1855,22426.1523,0.052,0.986,-0.050,192.000,0.000,0.000,0.000,0.000,0.000,0.000,0.000,0.000,0.000,1602542209.641830,2020-10-12 15:36:49.641826
185.000,14769.3174,-30930.2090,17777.7500,15855.1865,26319.9824,24041.7148,30499.0215,22474.7012,0.052,0.986,-0.050,192.000,0.000,0.000,0.000,0.000,0.000,0.000,0.000,0.000,0.000,1602542209.645840,2020-10-12 15:36:49.645843
186.000,14793.0098,-30788.2090,17269.1816,15900.1367,25491.8281,24174.7070,30370.4102,22054.8906,0.052,0.986,-0.050,192.000,0.000,0.000,0.000,0.000,0.000,0.000,0.000,0.000,0.000,1602542209.649860,2020-10-12 15:36:49.649860
187.000,14762.3428,-30810.8066,17068.8418,15675.8369,25250.2285,23837.0840,30224.3848,21944.4492,0.052,0.986,-0.050,192.000,0.000,0.000,0.000,0.000,0.000,0.000,0.000,0.000,0.000,1602542209.653880,2020-10-12 15:36:49.653876
188.000,14733.8896,-30944.4023,17546.5430,15586.1172,26045.7949,23645.7090,30329.8184,22354.3145,0.052,0.986,-0.050,192.000,0.000,0.000,0.000,0.000,0.000,0.000,0.000,0.000,0.000,1602542209.657890,2020-10-12 15:36:49.657893
189.000,14772.5352,-30929.3379,17808.9746,15804.8955,26385.2715,23970.6797,30490.3047,22512.7871,0.052,0.986,-0.050,192.000,0.000,0.000,0.000,0.000,0.000,0.000,0.000,0.000,0.000,1602542209.661910,2020-10-12 15:36:49.661910
190.000,14792.9424,-30804.7266,17367.0586,15912.0273,25631.8398,24202.2227,30410.0176,22130.2148,0.052,0.986,-0.050,192.000,0.000,0.000,0.000,0.000,0.000,0.000,0.000,0.000,0.000,1602542209.666030,2020-10-12 15:36:49.666027
191.000,14771.9990,-30778.1504,17055.2754,15712.3818,25195.4219,23909.9512,30238.6465,21926.9941,0.052,0.986,-0.050,192.000,0.000,0.000,0.000,0.000,0.000,0.000,0.000,0.000,0.000,1602542209.670150,2020-10-12 15:36:49.670145
192.000,14736.9961,-30915.0762,17449.1797,15571.6553,25872.5684,23633.4590,30292.2461,22278.6094,0.052,0.986,-0.050,192.000,0.000,0.000,0.000,0.000,0.000,0.000,0.000,0.000,0.000,1602542209.674260,2020-10-12 15:36:49.674262
193.000,14740.0586,-30965.6133,17831.9531,15752.7939,26423.7402,23901.6367,30482.8828,22550.4277,0.046,0.990,-0.056,192.000,1.000,112.000,30.000,240.000,254.000,64.000,0.000,0.000,0.000,1602542209.678380,2020-10-12 15:36:49.678380
194.000,14773.5195,-30835.6602,17476.8281,15911.8037,25794.7617,24211.6777,30445.1094,22222.5508,0.046,0.990,-0.056,192.000,0.000,0.000,0.000,0.000,0.000,0.000,0.000,0.000,0.000,1602542209.682500,2020-10-12 15:36:49.682497
195.000,14773.2734,-30763.7324,17061.1973,15748.3232,25184.7383,23987.8457,30257.6230,21921.5625,0.046,0.990,-0.056,192.000,0.000,0.000,0.000,0.000,0.000,0.000,0.000,0.000,0.000,1602542209.686620,2020-10-12 15:36:49.686615
196.000,14721.9980,-30897.9551,17343.4102,15563.4746,25699.7441,23653.4199,30266.1836,22191.9063,0.046,0.990,-0.056,192.000,0.000,0.000,0.000,0.000,0.000,0.000,0.000,0.000,0.000,1602542209.690730,2020-10-12 15:36:49.690732
197.000,14731.2744,-30971.2695,17818.0273,15699.1719,26408.0938,23824.2539,30451.4121,22538.8945,0.046,0.990,-0.056,192.000,0.000,0.000,0.000,0.000,0.000,0.000,0.000,0.000,0.000,1602542209.694850,2020-10-12 15:36:49.694850
198.000,14773.4746,-30862.0137,17578.1934,15897.2754,25945.6582,24182.5977,30453.0664,22287.8848,0.046,0.990,-0.056,192.000,0.000,0.000,0.000,0.000,0.000,0.000,0.000,0.000,0.000,1602542209.698970,2020-10-12 15:36:49.698967
199.000,14770.8594,-30767.0625,17091.9980,15780.0625,25210.5547,24046.5195,30266.5625,21925.4961,0.046,0.990,-0.056,192.000,0.000,0.000,0.000,0.000,0.000,0.000,0.000,0.000,0.000,1602542209.703090,2020-10-12 15:36:49.703085
200.000,14723.9209,-30870.8652,17252.0820,15562.9375,25542.8125,23683.6172,30233.7070,22107.4395,0.046,0.990,-0.056,192.000,0.000,0.000,0.000,0.000,0.000,0.000,0.000,0.000,0.000,1602542209.707200,2020-10-12 15:36:49.707202
201.000,14718.4443,-30978.1094,17781.7500,15638.6211,26365.5137,23760.4629,30425.0820,22519.7402,0.046,0.990,-0.056,192.000,0.000,0.000,0.000,0.000,0.000,0.000,0.000,0.000,0.000,1602542209.711320,2020-10-12 15:36:49.711320
202.000,14770.2109,-30875.5371,17672.5840,15869.6484,26103.2383,24144.8672,30483.7109,22372.8223,0.046,0.990,-0.056,192.000,0.000,0.000,0.000,0.000,0.000,0.000,0.000,0.000,0.000,1602542209.715440,2020-10-12 15:36:49.715438
203.000,14777.7217,-30762.9727,17150.6055,15813.7920,25284.6504,24110.1777,30313.1660,21967.0918,0.042,0.976,-0.056,192.000,1.000,80.000,30.000,128.000,254.000,64.000,0.000,0.000,0.000,1602542209.719560,2020-10-12 15:36:49.719555
204.000,14731.6318,-30836.2422,17170.4531,15584.6641,25400.8125,23732.8125,30224.4746,22034.4160,0.042,0.976,-0.056,192.000,0.000,0.000,0.000,0.000,0.000,0.000,0.000,0.000,0.000,1602542209.723670,2020-10-12 15:36:49.723673
205.000,14718.6904,-30965.7480,17710.6270,15605.0713,26267.5898,23701.5879,30393.0293,22469.8496,0.042,0.976,-0.056,192.000,0.000,0.000,0.000,0.000,0.000,0.000,0.000,0.000,0.000,1602542209.727590,2020-10-12 15:36:49.727590
206.000,14760.7559,-30901.9785,17743.1055,15847.9004,26232.4082,24092.4297,30496.0703,22440.2793,0.042,0.976,-0.056,192.000,0.000,0.000,0.000,0.000,0.000,0.000,0.000,0.000,0.000,1602542209.731510,2020-10-12 15:36:49.731507
207.000,14774.0781,-30771.8691,17218.7773,15851.6777,25393.3691,24161.5410,30337.8867,22018.5020,0.042,0.976,-0.056,192.000,0.000,0.000,0.000,0.000,0.000,0.000,0.000,0.000,0.000,1602542209.735420,2020-10-12 15:36:49.735424
208.000,14736.8398,-30814.0234,17106.7949,15619.2646,25295.9160,23799.9355,30218.1270,21983.0293,0.042,0.976,-0.056,192.000,0.000,0.000,0.000,0.000,0.000,0.000,0.000,0.000,0.000,1602542209.739340,2020-10-12 15:36:49.739341
209.000,14704.4521,-30960.7637,17622.6055,15569.6211,26141.8164,23670.3848,30358.1152,22412.4512,0.042,0.976,-0.056,192.000,0.000,0.000,0.000,0.000,0.000,0.000,0.000,0.000,0.000,1602542209.743260,2020-10-12 15:36:49.743258
210.000,14742.2939,-30925.3145,17793.3516,15804.0459,26332.5898,24028.2129,30495.1094,22492.9844,0.042,0.976,-0.056,192.000,0.000,0.000,0.000,0.000,0.000,0.000,0.000,0.000,0.000,1602542209.747180,2020-10-12 15:36:49.747175
211.000,14761.3369,-30792.2305,17307.2910,15871.3701,25527.7930,24200.8594,30381.2051,22084.8184,0.042,0.976,-0.056,192.000,0.000,0.000,0.000,0.000,0.000,0.000,0.000,0.000,0.000,1602542209.751090,2020-10-12 15:36:49.751092
212.000,14721.9316,-30807.0508,17066.1367,15649.3047,25223.7188,23873.6738,30224.6992,21941.0977,0.042,0.976,-0.056,192.000,0.000,0.000,0.000,0.000,0.000,0.000,0.000,0.000,0.000,1602542209.755010,2020-10-12 15:36:49.755010
213.000,14710.2412,-30920.5527,17509.8418,15545.3691,25976.7500,23637.5508,30304.1816,22324.3848,0.040,0.996,-0.060,192.000,1.000,64.000,31.000,32.000,254.000,32.000,0.000,0.000,0.000,1602542209.758930,2020-10-12 15:36:49.758927
214.000,14723.2949,-30953.0078,17814.6523,15757.0625,26390.6816,23946.9648,30481.2734,22522.9590,0.040,0.996,-0.060,192.000,0.000,0.000,0.000,0.000,0.000,0.000,0.000,0.000,0.000,1602542209.762840,2020-10-12 15:36:49.762844
215.000,14741.5342,-30828.2402,17410.7793,15891.7100,25690.8926,24223.8809,30427.5176,22166.6719,0.040,0.996,-0.060,192.000,0.000,0.000,0.000,0.000,0.000,0.000,0.000,0.000,0.000,1602542209.766760,2020-10-12 15:36:49.766761
216.000,14723.4512,-30792.5215,17062.2266,15700.9150,25201.0098,23953.2246,30250.4707,21928.8926,0.040,0.996,-0.060,192.000,0.000,0.000,0.000,0.000,0.000,0.000,0.000,0.000,0.000,1602542209.770680,2020-10-12 15:36:49.770678
217.000,14693.1650,-30911.9473,17411.5605,15541.3242,25820.8008,23640.2773,30284.3555,22248.8359,0.040,0.996,-0.060,192.000,0.000,0.000,0.000,0.000,0.000,0.000,0.000,0.000,0.000,1602542209.774600,2020-10-12 15:36:49.774595
218.000,14715.8516,-30953.6328,17827.1016,15715.8018,26423.2930,23870.1875,30472.7578,22538.4922,0.040,0.996,-0.060,192.000,0.000,0.000,0.000,0.000,0.000,0.000,0.000,0.000,0.000,1602542209.778510,2020-10-12 15:36:49.778512
219.000,14748.0830,-30840.5781,17518.3359,15900.9854,25854.0840,24209.5313,30455.3906,22239.7168,0.040,0.996,-0.060,192.000,0.000,0.000,0.000,0.000,0.000,0.000,0.000,0.000,0.000,1602542209.782430,2020-10-12 15:36:49.782429
220.000,14739.8350,-30774.4180,17078.6543,15752.1230,25206.1055,24015.1602,30267.4355,21924.9590,0.040,0.996,-0.060,192.000,0.000,0.000,0.000,0.000,0.000,0.000,0.000,0.000,0.000,1602542209.786360,2020-10-12 15:36:49.786360
221.000,14691.3760,-30893.7090,17312.9902,15548.5430,25659.7793,23657.3770,30254.3594,22165.2852,0.040,0.996,-0.060,192.000,0.000,0.000,0.000,0.000,0.000,0.000,0.000,0.000,0.000,1602542209.790290,2020-10-12 15:36:49.790291
222.000,14696.7637,-30976.1191,17807.9922,15667.2090,26413.5020,23793.6777,30446.1816,22538.0684,0.040,0.996,-0.060,192.000,0.000,0.000,0.000,0.000,0.000,0.000,0.000,0.000,0.000,1602542209.794220,2020-10-12 15:36:49.794221
223.000,14740.7510,-30872.7871,17618.8730,15887.8652,26029.1426,24176.3613,30483.3301,22337.0137,0.040,1.002,-0.054,192.000,1.000,64.000,31.000,80.000,254.000,80.000,0.000,0.000,0.000,1602542209.798150,2020-10-12 15:36:49.798151
224.000,14733.1074,-30786.3086,17123.7148,15790.8809,25270.9492,24084.2051,30302.9961,21965.7734,0.040,1.002,-0.054,192.000,0.000,0.000,0.000,0.000,0.000,0.000,0.000,0.000,0.000,1602542209.802080,2020-10-12 15:36:49.802082
225.000,14688.0908,-30873.0996,17230.1992,15561.2617,25524.1484,23701.5430,30236.0762,22097.5371,0.040,1.002,-0.054,192.000,0.000,0.000,0.000,0.000,0.000,0.000,0.000,0.000,0.000,1602542209.806010,2020-10-12 15:36:49.806013
226.000,14689.2979,-30978.1523,17762.2832,15623.0420,26359.9258,23733.5957,30417.1699,22514.6660,0.040,1.002,-0.054,192.000,0.000,0.000,0.000,0.000,0.000,0.000,0.000,0.000,0.000,1602542209.809940,2020-10-12 15:36:49.809943
227.000,14739.9248,-30891.2266,17706.8496,15866.8994,26178.6973,24138.0059,30499.4902,22412.2715,0.040,1.002,-0.054,192.000,0.000,0.000,0.000,0.000,0.000,0.000,0.000,0.000,0.000,1602542209.813870,2020-10-12 15:36:49.813874
228.000,14733.7549,-30790.0625,17185.4277,15829.4600,25361.4961,24152.5781,30343.9219,22005.6270,0.040,1.002,-0.054,192.000,0.000,0.000,0.000,0.000,0.000,0.000,0.000,0.000,0.000,1602542209.817800,2020-10-12 15:36:49.817804
229.000,14695.8467,-30845.4512,17157.6680,15593.4482,25407.5391,23773.6504,30248.3457,22039.7578,0.040,1.002,-0.054,192.000,0.000,0.000,0.000,0.000,0.000,0.000,0.000,0.000,0.000,1602542209.821740,2020-10-12 15:36:49.821735
230.000,14685.8555,-30971.6035,17681.3691,15580.5068,26261.0859,23696.7598,30393.9004,22464.8652,0.040,1.002,-0.054,192.000,0.000,0.000,0.000,0.000,0.000,0.000,0.000,0.000,0.000,1602542209.825670,2020-10-12 15:36:49.825665
231.000,14737.1523,-30912.9082,17768.0938,15828.4541,26305.1191,24084.8086,30509.7285,22469.6035,0.040,1.002,-0.054,192.000,0.000,0.000,0.000,0.000,0.000,0.000,0.000,0.000,0.000,1602542209.829600,2020-10-12 15:36:49.829596
232.000,14738.6504,-30795.9863,17272.9590,15862.6973,25492.0742,24211.6543,30387.2402,22061.0137,0.040,0.990,-0.044,192.000,1.000,64.000,30.000,240.000,254.000,160.000,0.000,0.000,0.000,1602542209.833530,2020-10-12 15:36:49.833526
233.000,14706.4639,-30820.5742,17118.5742,15631.8936,25328.9727,23857.9824,30258.8066,21995.8359,0.040,0.990,-0.044,192.000,0.000,0.000,0.000,0.000,0.000,0.000,0.000,0.000,0.000,1602542209.837460,2020-10-12 15:36:49.837457
234.000,14688.0684,-30952.8730,17605.1270,15561.6641,26138.6660,23679.7949,30372.1973,22407.4004,0.040,0.990,-0.044,192.000,0.000,0.000,0.000,0.000,0.000,0.000,0.000,0.000,0.000,1602542209.841390,2020-10-12 15:36:49.841387
235.000,14724.8369,-30934.7246,17823.4141,15792.1777,26405.1875,24027.7441,30522.6016,22524.9473,0.040,0.990,-0.044,192.000,0.000,0.000,0.000,0.000,0.000,0.000,0.000,0.000,0.000,1602542209.845400,2020-10-12 15:36:49.845402
236.000,14761.5166,-30786.4414,17365.0469,15892.8496,25634.0078,24247.0371,30426.9590,22134.3281,0.040,0.990,-0.044,192.000,0.000,0.000,0.000,0.000,0.000,0.000,0.000,0.000,0.000,1602542209.849420,2020-10-12 15:36:49.849416
237.000,14730.0674,-30784.8340,17091.1719,15684.0400,25268.7363,23937.3770,30263.6797,21964.5898,0.040,0.990,-0.044,192.000,0.000,0.000,0.000,0.000,0.000,0.000,0.000,0.000,0.000,1602542209.853430,2020-10-12 15:36:49.853430
238.000,14688.9629,-30929.3594,17507.1152,15548.3643,25984.2598,23671.0996,30331.2930,22329.4590,0.040,0.990,-0.044,192.000,0.000,0.000,0.000,0.000,0.000,0.000,0.000,0.000,0.000,1602542209.857440,2020-10-12 15:36:49.857444
239.000,14709.0342,-30953.5664,17850.8848,15746.8037,26469.2246,23961.2031,30516.8574,22564.4199,0.040,0.990,-0.044,192.000,0.000,0.000,0.000,0.000,0.000,0.000,0.000,0.000,0.000,1602542209.861460,2020-10-12 15:36:49.861459
240.000,14748.0830,-30822.9434,17478.8848,15903.8916,25810.9219,24267.8906,30474.7246,22229.7695,0.040,0.990,-0.044,192.000,0.000,0.000,0.000,0.000,0.000,0.000,0.000,0.000,0.000,1602542209.865470,2020-10-12 15:36:49.865473
241.000,14731.1406,-30776.3613,17099.8652,15723.8701,25260.9805,24025.6426,30292.9824,21965.1035,0.040,0.990,-0.044,192.000,0.000,0.000,0.000,0.000,0.000,0.000,0.000,0.000,0.000,1602542209.869490,2020-10-12 15:36:49.869487
242.000,14691.5996,-30897.9102,17410.8691,15543.9609,25821.1133,23690.3008,30307.1309,22250.2891,0.048,0.982,-0.048,192.000,1.000,128.000,30.000,176.000,254.000,128.000,0.000,0.000,0.000,1602542209.873500,2020-10-12 15:36:49.873501
243.000,14705.4131,-30959.6230,17853.7012,15703.7988,26475.8867,23891.3984,30496.9863,22571.6855,0.048,0.982,-0.048,192.000,0.000,0.000,0.000,0.000,0.000,0.000,0.000,0.000,0.000,1602542209.877520,2020-10-12 15:36:49.877515
