%OpenBCI Raw EEG Data
%Number of channels = 16
%Sample Rate = 125 Hz
%Board = OpenBCI_GUI$BoardCytonSerialDaisy
%Logger = brainHat
Sample Index, EXG Channel 0, EXG Channel 1, EXG Channel 2, EXG Channel 3, EXG Channel 4, EXG Channel 5, EXG Channel 6, EXG Channel 7, EXG Channel 8, EXG Channel 9, EXG Channel 10, EXG Channel 11, EXG Channel 12, EXG Channel 13, EXG Channel 14, EXG Channel 15, Accel Channel 0, Accel Channel 1, Accel Channel 2, Accel Channel 3, Accel Channel 4, Accel Channel 5, Accel Channel 6, Accel Channel 7, Accel Channel 8, Accel Channel 9, Accel Channel 10, Accel Channel 11, Accel Channel 12, Accel Channel 13, Accel Channel 14, Accel Channel 15, Other, Other, Other, Other, Other, Other, Other, Analog Channel 0, Analog Channel 1, Analog Channel 2, Timestamp, Timestamp (Formatted)
84.000,65817.3938,53469.2619,-23488.6659,47245.3963,36709.4099,52189.1999,16650.1944,-20386.8920,25404.9033,-512.0114,29562.2161,22349.5763,26891.4955,17808.9759,24685.3560,38378.2135,-0.0060,0.9600,0.2500,192.0000,0.0000,0.0000,0.0000,0.0000,0.0000,0.0000,0.0000,0.0000,0.0000,1623894916.741430,2021-06-16 18:55:16.741428
86.000,65871.5967,53555.6067,-23514.4599,47237.0144,36502.7233,52091.8133,16434.7013,-20580.0558,25445.3153,-683.0023,29600.4599,22247.7865,27206.1857,17618.4049,24740.9895,38388.3164,-0.0060,0.9600,0.2500,192.0000,0.0000,0.0000,0.0000,0.0000,0.0000,0.0000,0.0000,0.0000,0.0000,1623894916.748860,2021-06-16 18:55:16.748857
88.000,65821.7300,53470.5807,-23485.6261,47256.0358,36677.1786,52232.0929,16619.7066,-20386.6238,25389.1007,-498.0863,29553.9012,22353.4879,26861.3877,17821.2470,24680.3939,38368.8928,-0.0060,0.9600,0.2500,192.0000,0.0000,0.0000,14.5000,112.0000,4.0000,16.0000,0.0000,0.0000,0.0000,1623894916.756290,2021-06-16 18:55:16.756285
90.000,65867.3276,53548.1189,-23512.2023,47228.7443,36527.3773,52079.7657,16478.3319,-20557.0558,25458.7263,-706.8739,29617.0225,22240.3657,27239.4675,17620.9754,24757.5298,38407.9860,-0.0060,0.9600,0.2500,192.0000,0.0000,0.0000,0.0000,0.0000,0.0000,0.0000,0.0000,0.0000,0.0000,1623894916.763710,2021-06-16 18:55:16.763714
92.000,65824.7251,53481.9801,-23478.7194,47268.3516,36633.3469,52245.1016,16564.9449,-20415.2564,25390.3971,-482.2612,29546.7263,22358.4053,26831.4811,17817.8943,24669.7545,38342.0260,-0.0060,0.9600,0.2500,192.0000,0.0000,0.0000,0.0000,0.0000,0.0000,0.0000,0.0000,0.0000,0.0000,1623894916.771140,2021-06-16 18:55:16.771142
94.000,65855.8835,53534.1491,-23511.1741,47226.4421,36575.1653,52078.8717,16548.7846,-20509.9831,25456.9382,-712.7077,29628.6901,22245.4843,27258.4888,17635.0346,24770.6726,38424.6827,-0.0060,0.9600,0.2500,192.0000,0.0000,0.0000,0.0000,0.0000,0.0000,0.0000,0.0000,0.0000,0.0000,1623894916.778570,2021-06-16 18:55:16.778571
96.000,65835.1857,53496.4640,-23477.1548,47269.7374,36591.1021,52259.6973,16519.5038,-20435.0824,25391.2911,-469.6102,29550.5261,22365.8261,26835.4820,17817.9837,24659.3162,38326.1562,-0.0060,0.9600,0.2500,192.0000,0.0000,0.0000,0.0000,0.0000,0.0000,0.0000,0.0000,0.0000,0.0000,1623894916.786000,2021-06-16 18:55:16.786000
98.000,65865.2712,53531.6904,-23507.9778,47203.3527,36576.8864,51997.7795,16527.5281,-20548.4951,25448.2881,-716.2840,29621.8282,22241.7068,27230.0350,17626.2280,24754.9370,38420.0783,0.0020,0.9580,0.2660,192.0000,0.0000,8.0000,14.5000,120.0000,4.0000,40.0000,0.0000,0.0000,0.0000,1623894916.792380,2021-06-16 18:55:16.792375
100.000,65836.4821,53499.9509,-23484.5532,47270.5197,36557.9991,52265.9111,16467.1113,-20469.0570,25377.7236,-480.9425,29534.8799,22350.8280,26806.5812,17776.8788,24642.8653,38299.0212,0.0020,0.9580,0.2660,192.0000,0.0000,0.0000,0.0000,0.0000,0.0000,0.0000,0.0000,0.0000,0.0000,1623894916.798750,2021-06-16 18:55:16.798749
102.000,65843.9476,53499.2356,-23513.2752,47206.8619,36644.0981,52058.3304,16629.8990,-20467.8947,25465.3201,-705.7116,29634.1216,22251.4075,27240.0933,17655.0618,24765.2858,38443.7935,0.0020,0.9580,0.2660,192.0000,0.0000,0.0000,0.0000,0.0000,0.0000,0.0000,0.0000,0.0000,0.0000,1623894916.805120,2021-06-16 18:55:16.805124
104.000,65845.1993,53512.1549,-23479.0770,47271.6820,36512.2451,52257.1045,16415.7470,-20506.7644,25395.1356,-494.3982,29541.5407,22342.3567,26854.1010,17771.0003,24650.5767,38306.5538,0.0020,0.9580,0.2660,192.0000,0.0000,0.0000,0.0000,0.0000,0.0000,0.0000,0.0000,0.0000,0.0000,1623894916.811500,2021-06-16 18:55:16.811500
106.000,65846.0487,53499.6156,-23500.5794,47211.2429,36679.7267,52061.4597,16661.4821,-20445.9230,25445.6282,-704.8399,29621.5376,22254.2014,27189.1537,17669.9257,24762.2907,38445.8051,0.0020,0.9580,0.2660,192.0000,0.0000,0.0000,0.0000,0.0000,0.0000,0.0000,0.0000,0.0000,0.0000,1623894916.817870,2021-06-16 18:55:16.817874
108.000,65858.8115,53536.3842,-23473.1762,47276.7335,36485.5795,52243.6487,16363.4886,-20542.4154,25401.6847,-496.9687,29551.2413,22342.4908,26878.0398,17750.3696,24668.5251,38302.6869,0.0040,0.9580,0.2700,192.0000,0.0000,16.0000,14.5000,120.0000,4.0000,56.0000,0.0000,0.0000,0.0000,1623894916.824250,2021-06-16 18:55:16.824249
110.000,65844.3723,53494.3406,-23493.3822,47219.9824,36709.5663,52076.0777,16689.5558,-20404.4381,25434.4076,-674.9780,29619.9506,22272.7981,27145.8360,17701.7769,24757.9768,38446.2298,0.0040,0.9580,0.2700,192.0000,0.0000,0.0000,0.0000,0.0000,0.0000,0.0000,0.0000,0.0000,0.0000,1623894916.830620,2021-06-16 18:55:16.830624
112.000,65871.1050,53549.8400,-23467.4318,47281.2262,36460.3444,52234.3057,16338.7005,-20554.3066,25412.4582,-512.1008,29560.7185,22337.0147,26921.2010,17731.6165,24678.5163,38310.2418,0.0040,0.9580,0.2700,192.0000,0.0000,0.0000,0.0000,0.0000,0.0000,0.0000,0.0000,0.0000,0.0000,1623894916.837000,2021-06-16 18:55:16.836999
114.000,65834.4258,53478.3591,-23501.4288,47219.2672,36734.0191,52106.5878,16722.5247,-20362.1710,25433.2006,-646.2113,29613.3121,22289.8078,27108.5980,17734.8799,24758.3568,38448.3309,0.0040,0.9580,0.2700,192.0000,0.0000,0.0000,0.0000,0.0000,0.0000,0.0000,0.0000,0.0000,0.0000,1623894916.844430,2021-06-16 18:55:16.844428
116.000,65870.7697,53552.3881,-23493.4939,47263.4789,36441.5018,52213.0939,16331.6597,-20564.0966,25426.2940,-540.6440,29567.6699,22315.0652,26983.5400,17705.3532,24693.9614,38321.1718,0.0040,0.9580,0.2700,192.0000,0.0000,0.0000,0.0000,0.0000,0.0000,0.0000,0.0000,0.0000,0.0000,1623894916.851860,2021-06-16 18:55:16.851856
118.000,65824.8592,53465.9762,-23499.2160,47208.0466,36749.3971,52142.3730,16752.0066,-20324.7542,25429.1326,-620.2609,29603.1421,22292.1771,27070.8236,17759.4668,24735.3792,38434.1152,-0.0060,0.9520,0.2740,192.0000,127.5000,104.0000,14.5000,96.0000,4.0000,72.0000,0.0000,0.0000,0.0000,1623894916.859290,2021-06-16 18:55:16.859285
120.000,65886.9077,53571.7894,-23486.6319,47247.2739,36434.5728,52186.8530,16331.1009,-20571.9421,25430.8984,-569.7013,29577.3035,22297.9438,27050.1035,17684.7449,24695.7272,38322.1329,-0.0060,0.9520,0.2740,192.0000,0.0000,0.0000,0.0000,0.0000,0.0000,0.0000,0.0000,0.0000,0.0000,1623894916.866710,2021-06-16 18:55:16.866714
122.000,65847.9709,53489.4456,-23477.8700,47218.5966,36738.7577,52127.3303,16697.0437,-20354.9067,25426.0034,-571.4894,29598.2247,22326.0847,27012.3290,17778.1529,24711.0828,38412.3446,-0.0060,0.9520,0.2740,192.0000,0.0000,0.0000,0.0000,0.0000,0.0000,0.0000,0.0000,0.0000,0.0000,1623894916.874140,2021-06-16 18:55:16.874142
124.000,65889.5899,53576.7068,-23486.5649,47247.1174,36440.0937,52143.0435,16319.1204,-20598.5854,25431.5466,-598.4009,29577.5270,22287.9526,27068.2531,17630.4302,24698.4094,38313.7957,-0.0060,0.9520,0.2740,192.0000,0.0000,0.0000,0.0000,0.0000,0.0000,0.0000,0.0000,0.0000,0.0000,1623894916.881570,2021-06-16 18:55:16.881571
126.000,65826.2003,53468.2338,-23492.1752,47232.9911,36741.4399,52213.9209,16724.5363,-20311.2090,25420.9072,-539.4370,29594.1343,22345.6648,26994.3135,17820.3977,24710.0770,38414.0880,-0.0060,0.9520,0.2740,192.0000,0.0000,0.0000,0.0000,0.0000,0.0000,0.0000,0.0000,0.0000,0.0000,1623894916.889000,2021-06-16 18:55:16.888999
128.000,65897.4801,53581.4006,-23478.7865,47247.4080,36454.9352,52143.8035,16360.0241,-20582.0004,25434.5194,-636.4659,29592.3909,22267.4337,27136.5377,17629.3573,24721.4764,38340.7966,-0.0140,0.9540,0.2660,192.0000,127.5000,72.0000,14.5000,104.0000,4.0000,40.0000,0.0000,0.0000,0.0000,1623894916.895500,2021-06-16 18:55:16.895499
130.000,65838.1362,53476.7721,-23465.5989,47252.1019,36733.3039,52249.0132,16700.3964,-20312.8854,25413.6205,-502.0872,29596.0566,22366.4519,26953.2534,17838.5696,24708.9594,38404.0074,-0.0140,0.9540,0.2660,192.0000,0.0000,0.0000,0.0000,0.0000,0.0000,0.0000,0.0000,0.0000,0.0000,1623894916.902000,2021-06-16 18:55:16.901999
132.000,65896.6083,53572.7952,-23480.6193,47244.5023,36496.4201,52130.8842,16414.3612,-20553.9489,25461.1850,-643.1938,29621.9846,22272.7087,27225.9894,17648.2892,24760.5025,38387.5341,-0.0140,0.9540,0.2660,192.0000,0.0000,0.0000,0.0000,0.0000,0.0000,0.0000,0.0000,0.0000,0.0000,1623894916.908500,2021-06-16 18:55:16.908499
134.000,65831.7659,53473.4641,-23469.3093,47252.3701,36695.8871,52230.6847,16638.5268,-20341.1827,25398.6896,-481.4789,29568.5863,22364.6638,26897.2399,17834.5463,24694.1402,38373.5419,-0.0140,0.9540,0.2660,192.0000,0.0000,0.0000,0.0000,0.0000,0.0000,0.0000,0.0000,0.0000,0.0000,1623894916.915000,2021-06-16 18:55:16.914999
136.000,65884.0020,53562.5358,-23478.6971,47231.6724,36533.5463,52088.3488,16463.9820,-20517.7391,25447.7069,-672.5416,29618.0731,22250.9828,27250.5539,17636.6216,24762.5142,38402.6439,-0.0140,0.9540,0.2660,192.0000,0.0000,0.0000,0.0000,0.0000,0.0000,0.0000,0.0000,0.0000,0.0000,1623894916.921500,2021-06-16 18:55:16.921499
138.000,65845.7358,53494.7206,-23449.2151,47253.4430,36667.2768,52219.3971,16576.7019,-20370.2847,25403.8081,-464.1340,29564.0265,22364.3285,26884.6335,17833.0040,24686.5183,38356.7558,-0.0240,0.9580,0.2720,192.0000,127.5000,32.0000,14.5000,120.0000,4.0000,64.0000,0.0000,0.0000,0.0000,1623894916.928000,2021-06-16 18:55:16.927999
140.000,65886.3265,53559.2948,-23486.5649,47214.9756,36563.4977,52050.4179,16483.8080,-20521.3825,25468.4046,-682.9352,29625.9185,22248.6806,27267.2954,17621.7130,24773.8912,38412.5681,-0.0240,0.9580,0.2720,192.0000,0.0000,0.0000,0.0000,0.0000,0.0000,0.0000,0.0000,0.0000,0.0000,1623894916.934500,2021-06-16 18:55:16.934499
142.000,65861.1138,53509.1598,-23456.7476,47258.8744,36624.6520,52243.7828,16515.1675,-20400.8618,25399.5613,-456.0873,29548.4474,22364.5073,26865.9698,17820.1965,24664.0771,38329.3078,-0.0240,0.9580,0.2720,192.0000,0.0000,0.0000,0.0000,0.0000,0.0000,0.0000,0.0000,0.0000,0.0000,1623894916.941000,2021-06-16 18:55:16.940999
144.000,65885.0525,53545.5708,-23494.6786,47211.8464,36609.8328,52064.6560,16549.9692,-20470.4205,25463.3532,-698.4026,29624.5104,22247.4512,27282.2264,17637.0016,24782.7649,38423.2299,-0.0240,0.9580,0.2720,192.0000,0.0000,0.0000,0.0000,0.0000,0.0000,0.0000,0.0000,0.0000,0.0000,1623894916.948430,2021-06-16 18:55:16.948428
146.000,65872.4461,53525.3201,-23459.7204,47260.8190,36592.5773,52261.2172,16464.7196,-20429.1815,25400.2095,-461.5188,29541.0266,22364.3508,26868.1826,17807.7019,24670.6262,38312.8569,-0.0240,0.9580,0.2720,192.0000,0.0000,0.0000,0.0000,0.0000,0.0000,0.0000,0.0000,0.0000,0.0000,1623894916.955860,2021-06-16 18:55:16.955857
148.000,65888.5841,53542.5980,-23484.6426,47205.2750,36650.0660,52052.9660,16580.0323,-20458.8646,25464.2472,-710.4502,29619.3248,22250.6028,27268.0330,17643.5507,24786.6317,38428.8849,-0.0260,0.9520,0.2740,192.0000,127.5000,24.0000,14.5000,96.0000,4.0000,72.0000,0.0000,0.0000,0.0000,1623894916.963290,2021-06-16 18:55:16.963285
150.000,65867.3052,53529.7011,-23477.8477,47265.4682,36552.5453,52273.9577,16427.6158,-20450.3263,25400.1201,-473.3652,29533.1141,22361.7133,26886.9581,17787.4959,24667.0052,38300.2729,-0.0260,0.9520,0.2740,192.0000,0.0000,0.0000,0.0000,0.0000,0.0000,0.0000,0.0000,0.0000,0.0000,1623894916.970710,2021-06-16 18:55:16.970714
152.000,65865.9194,53516.6700,-23506.7261,47183.4150,36660.2584,52023.4617,16608.1061,-20446.5041,25446.4776,-708.3715,29597.8224,22252.8380,27247.8717,17669.8363,24766.2693,38429.0413,-0.0260,0.9520,0.2740,192.0000,0.0000,0.0000,0.0000,0.0000,0.0000,0.0000,0.0000,0.0000,0.0000,1623894916.978140,2021-06-16 18:55:16.978142
154.000,65867.0817,53536.6077,-23484.2850,47266.3176,36530.5065,52283.2113,16413.5789,-20463.0444,25387.3796,-501.5508,29511.8352,22339.0040,26896.9270,17758.8857,24651.7837,38283.5091,-0.0260,0.9520,0.2740,192.0000,0.0000,0.0000,0.0000,0.0000,0.0000,0.0000,0.0000,0.0000,0.0000,1623894916.985570,2021-06-16 18:55:16.985571
156.000,65856.9787,53501.0685,-23507.2179,47196.4460,36719.8034,52091.1875,16704.6209,-20365.7473,25447.8857,-682.5999,29596.5930,22270.2053,27244.4072,17714.4727,24760.2343,38448.9344,-0.0260,0.9520,0.2740,192.0000,0.0000,0.0000,0.0000,0.0000,0.0000,0.0000,0.0000,0.0000,0.0000,1623894916.993000,2021-06-16 18:55:16.993000
158.000,65898.2624,53565.0168,-23465.9789,47262.7637,36484.7748,52240.5865,16362.2369,-20519.2814,25404.0093,-510.4915,29526.3639,22336.0088,26976.4992,17754.4153,24668.3910,38306.1067,-0.0250,0.9500,0.2730,192.0000,127.5000,32.0000,14.5000,80.0000,4.0000,64.0000,0.0000,0.0000,0.0000,1623894916.999500,2021-06-16 18:55:16.999500
160.000,65851.9049,53487.8139,-23505.5639,47197.3177,36738.8695,52094.8979,16727.6656,-20355.4431,25443.2589,-662.7292,29584.9701,22277.5814,27181.4200,17722.9888,24751.3383,38435.6127,-0.0250,0.9500,0.2730,192.0000,0.0000,0.0000,0.0000,0.0000,0.0000,0.0000,0.0000,0.0000,0.0000,1623894917.006000,2021-06-16 18:55:17.006000
162.000,65903.8056,53577.8244,-23480.1276,47267.4799,36472.0790,52225.3427,16354.0338,-20544.7847,25414.4699,-538.4759,29534.3211,22322.9331,27021.0462,17722.9217,24688.7982,38315.7627,-0.0250,0.9500,0.2730,192.0000,0.0000,0.0000,0.0000,0.0000,0.0000,0.0000,0.0000,0.0000,0.0000,1623894917.012500,2021-06-16 18:55:17.012500
164.000,65845.6240,53480.2366,-23505.3850,47200.8493,36756.7956,52124.8939,16754.3759,-20330.9456,25427.3668,-647.1948,29573.5484,22289.2043,27138.2364,17749.9226,24750.2878,38438.7196,-0.0250,0.9500,0.2730,192.0000,0.0000,0.0000,0.0000,0.0000,0.0000,0.0000,0.0000,0.0000,0.0000,1623894917.019000,2021-06-16 18:55:17.019000
166.000,65913.9533,53587.2121,-23471.8798,47257.2428,36467.0499,52200.1746,16352.5139,-20564.6778,25431.3008,-564.2698,29542.6806,22302.1012,27078.6467,17691.0481,24703.9526,38323.1835,-0.0250,0.9500,0.2730,192.0000,0.0000,0.0000,0.0000,0.0000,0.0000,0.0000,0.0000,0.0000,0.0000,1623894917.025500,2021-06-16 18:55:17.025500
168.000,65868.6910,53501.3590,-23479.9935,47217.4567,36758.2931,52123.3740,16721.0495,-20365.0320,25438.3416,-586.9345,29576.1412,22315.0205,27090.7837,17772.6990,24743.6717,38428.1472,-0.0255,0.9490,0.2695,192.0000,127.5000,24.0000,14.5000,80.0000,4.0000,40.0000,0.0000,0.0000,0.0000,1623894917.032000,2021-06-16 18:55:17.032000
170.000,65923.1846,53600.0643,-23481.3569,47253.0853,36454.3318,52153.0795,16328.1952,-20613.3375,25441.9402,-577.6808,29556.5164,22297.3180,27120.7127,17665.6118,24725.6338,38331.9677,-0.0255,0.9490,0.2695,192.0000,0.0000,0.0000,0.0000,0.0000,0.0000,0.0000,0.0000,0.0000,0.0000,1623894917.038500,2021-06-16 18:55:17.038500
172.000,65862.6784,53493.9159,-23478.7418,47224.9445,36751.3194,52141.7471,16686.6501,-20385.6403,25424.6846,-546.9248,29559.9362,22331.2926,27024.4884,17790.8486,24733.1217,38408.8353,-0.0255,0.9490,0.2695,192.0000,0.0000,0.0000,0.0000,0.0000,0.0000,0.0000,0.0000,0.0000,0.0000,1623894917.045000,2021-06-16 18:55:17.045000
174.000,65918.3789,53593.4929,-23487.1460,47244.8376,36474.3366,52137.9026,16349.6976,-20618.0537,25452.5796,-611.2979,29564.2724,22276.3744,27170.5347,17650.0550,24744.8340,38348.2621,-0.0255,0.9490,0.2695,192.0000,0.0000,0.0000,0.0000,0.0000,0.0000,0.0000,0.0000,0.0000,0.0000,1623894917.052290,2021-06-16 18:55:17.052285
176.000,65862.7231,53493.6924,-23472.7291,47226.9338,36737.8860,52172.1902,16661.2362,-20398.0902,25418.3144,-535.0784,29549.5650,22343.1167,26986.1552,17816.8884,24719.2636,38394.4408,-0.0255,0.9490,0.2695,192.0000,0.0000,0.0000,0.0000,0.0000,0.0000,0.0000,0.0000,0.0000,0.0000,1623894917.059570,2021-06-16 18:55:17.059571
178.000,65921.0835,53589.9167,-23484.8885,47244.9046,36490.8992,52089.7123,16360.5605,-20643.1548,25435.5252,-645.1608,29555.1082,22253.7097,27173.5522,17614.0463,24752.8806,38346.0269,-0.0248,0.9475,0.2658,192.0000,127.5000,32.0000,14.5000,72.0000,4.0000,24.0000,0.0000,0.0000,0.0000,1623894917.066860,2021-06-16 18:55:17.066857
180.000,65854.6765,53484.3494,-23490.2082,47242.8929,36728.2524,52243.0005,16672.8814,-20374.3750,25424.6176,-488.5868,29552.8060,22362.3615,26976.5663,17855.7581,24726.2597,38396.8772,-0.0248,0.9475,0.2658,192.0000,0.0000,0.0000,0.0000,0.0000,0.0000,0.0000,0.0000,0.0000,0.0000,1623894917.074140,2021-06-16 18:55:17.074142
182.000,65931.8570,53592.6212,-23502.4570,47222.3293,36504.3326,52075.3625,16411.7013,-20624.8040,25447.1034,-670.4853,29567.9381,22243.9420,27241.6132,17624.2164,24759.1838,38370.4574,-0.0248,0.9475,0.2658,192.0000,0.0000,0.0000,0.0000,0.0000,0.0000,0.0000,0.0000,0.0000,0.0000,1623894917.081430,2021-06-16 18:55:17.081428
184.000,65880.4704,53506.2541,-23480.0382,47247.3186,36679.7044,52241.0336,16603.0099,-20428.8909,25423.1871,-455.2827,29547.5980,22373.3139,26938.4342,17841.7436,24694.9672,38368.0211,-0.0248,0.9475,0.2658,192.0000,0.0000,0.0000,0.0000,0.0000,0.0000,0.0000,0.0000,0.0000,0.0000,1623894917.088710,2021-06-16 18:55:17.088714
186.000,65935.0086,53586.8545,-23492.1305,47217.7025,36553.2606,52079.1846,16481.5058,-20595.0091,25463.7555,-681.2812,29594.5143,22244.3890,27289.6918,17630.7655,24763.5424,38396.9666,-0.0248,0.9475,0.2658,192.0000,0.0000,0.0000,0.0000,0.0000,0.0000,0.0000,0.0000,0.0000,0.0000,1623894917.096000,2021-06-16 18:55:17.095999
188.000,65892.4733,53516.3794,-23479.2782,47247.5421,36637.5490,52241.4136,16555.0430,-20462.1056,25414.1570,-429.7346,29542.9041,22374.1633,26920.7092,17846.5045,24671.2744,38342.0483,-0.0234,0.9478,0.2719,192.0000,127.5000,40.0000,14.5000,80.0000,4.0000,88.0000,0.0000,0.0000,0.0000,1623894917.154380,2021-06-16 18:55:17.154375
190.000,65937.8026,53576.2150,-23490.0294,47213.5228,36588.8445,52048.3615,16525.6952,-20584.4367,25472.3162,-682.2423,29604.1703,22251.6310,27301.7841,17639.8850,24757.7309,38408.2542,-0.0234,0.9478,0.2719,192.0000,0.0000,0.0000,0.0000,0.0000,0.0000,0.0000,0.0000,0.0000,0.0000,1623894917.160750,2021-06-16 18:55:17.160749
192.000,65910.3770,53534.1938,-23464.9954,47259.2321,36601.8309,52238.2396,16494.6039,-20510.7654,25412.8829,-449.3148,29537.0927,22372.5763,26912.5062,17820.8000,24661.6855,38330.9619,-0.0234,0.9478,0.2719,192.0000,0.0000,0.0000,0.0000,0.0000,0.0000,0.0000,0.0000,0.0000,0.0000,1623894917.167120,2021-06-16 18:55:17.167124
194.000,65922.0670,53553.4163,-23508.0673,47212.5840,36628.2283,52051.5578,16594.3374,-20548.9422,25463.8672,-675.9391,29610.5852,22253.9332,27302.0300,17649.1833,24769.9797,38434.3834,-0.0234,0.9478,0.2719,192.0000,0.0000,0.0000,0.0000,0.0000,0.0000,0.0000,0.0000,0.0000,0.0000,1623894917.173500,2021-06-16 18:55:17.173500
196.000,65927.3867,53553.2151,-23468.7729,47257.7345,36555.1158,52234.6633,16449.7663,-20555.8712,25412.1230,-452.6228,29543.8206,22357.5336,26928.4653,17798.8953,24663.2501,38319.2719,-0.0234,0.9478,0.2719,192.0000,0.0000,0.0000,0.0000,0.0000,0.0000,0.0000,0.0000,0.0000,0.0000,1623894917.179870,2021-06-16 18:55:17.179874
198.000,65931.0300,53551.4940,-23503.7534,47210.1476,36663.1417,52028.2226,16623.7076,-20553.3902,25462.4814,-654.3250,29620.0177,22258.8730,27284.9533,17654.5254,24773.9359,38430.6730,-0.0237,0.9429,0.2789,192.0000,127.5000,32.0000,14.5000,40.0000,4.0000,120.0000,0.0000,0.0000,0.0000,1623894917.186250,2021-06-16 18:55:17.186249
200.000,65922.3799,53553.1704,-23473.3326,47281.1591,36531.9594,52236.2280,16422.0278,-20581.8216,25415.8780,-431.0757,29546.5475,22359.2546,26948.4254,17782.7573,24679.8128,38308.2301,-0.0237,0.9429,0.2789,192.0000,0.0000,0.0000,0.0000,0.0000,0.0000,0.0000,0.0000,0.0000,0.0000,1623894917.192620,2021-06-16 18:55:17.192624
202.000,65914.9144,53526.6165,-23505.7874,47210.0582,36704.5819,52035.3752,16682.0010,-20512.9111,25454.9042,-653.6544,29606.0255,22254.9838,27261.3051,17686.0637,24786.9223,38438.0938,-0.0237,0.9429,0.2789,192.0000,0.0000,0.0000,0.0000,0.0000,0.0000,0.0000,0.0000,0.0000,0.0000,1623894917.199000,2021-06-16 18:55:17.198999
204.000,65936.7074,53575.5892,-23487.2354,47277.1358,36499.8846,52204.8014,16395.5410,-20619.1490,25417.1968,-449.1360,29548.8050,22342.7367,26992.5254,17758.9751,24697.0459,38306.2855,-0.0237,0.9429,0.2789,192.0000,0.0000,0.0000,0.0000,0.0000,0.0000,0.0000,0.0000,0.0000,0.0000,1623894917.206430,2021-06-16 18:55:17.206428
206.000,65925.5986,53531.2433,-23511.1965,47206.6831,36699.3516,51986.5366,16675.8989,-20538.8615,25435.6817,-618.8080,29597.6659,22266.2043,27212.4666,17681.7274,24768.3480,38422.9616,-0.0237,0.9429,0.2789,192.0000,0.0000,0.0000,0.0000,0.0000,0.0000,0.0000,0.0000,0.0000,0.0000,1623894917.213860,2021-06-16 18:55:17.213856
208.000,65954.9464,53587.3462,-23480.1946,47291.1057,36479.9468,52168.1669,16367.4225,-20664.2325,25411.9888,-478.1485,29543.6641,22324.7659,26997.5992,17692.4339,24691.0557,38289.4547,-0.0298,0.9404,0.2775,192.0000,127.0000,112.0000,14.5000,40.0000,4.0000,80.0000,0.0000,0.0000,0.0000,1623894917.221290,2021-06-16 18:55:17.221285
210.000,65910.6452,53505.8070,-23487.6825,47230.9124,36746.6479,52030.1449,16720.6918,-20505.7139,25430.4961,-592.4330,29587.5853,22289.7631,27170.5123,17703.7663,24769.9573,38427.8790,-0.0298,0.9404,0.2775,192.0000,0.0000,0.0000,0.0000,0.0000,0.0000,0.0000,0.0000,0.0000,0.0000,1623894917.228710,2021-06-16 18:55:17.228714
212.000,65946.0504,53571.1859,-23489.1353,47279.5722,36462.4231,52146.9774,16373.7928,-20679.0517,25424.4611,-501.4167,29551.2860,22318.2168,27090.3366,17682.5544,24715.5308,38319.6966,-0.0298,0.9404,0.2775,192.0000,0.0000,0.0000,0.0000,0.0000,0.0000,0.0000,0.0000,0.0000,0.0000,1623894917.236140,2021-06-16 18:55:17.236142
214.000,65901.7939,53489.4009,-23486.9449,47223.5587,36740.3447,52042.7289,16732.1806,-20500.2601,25415.3416,-573.1881,29566.0829,22297.6532,27106.4969,17698.1783,24741.3024,38406.7790,-0.0298,0.9404,0.2775,192.0000,0.0000,0.0000,0.0000,0.0000,0.0000,0.0000,0.0000,0.0000,0.0000,1623894917.243570,2021-06-16 18:55:17.243571
216.000,65958.2768,53587.5697,-23491.0129,47262.4507,36457.6622,52120.9824,16382.4429,-20702.9680,25421.8683,-524.0366,29555.4882,22298.7708,27119.2374,17631.1678,24710.1441,38317.8861,-0.0298,0.9404,0.2775,192.0000,0.0000,0.0000,0.0000,0.0000,0.0000,0.0000,0.0000,0.0000,0.0000,1623894917.251000,2021-06-16 18:55:17.250999
218.000,65898.5976,53482.0918,-23500.1547,47217.0543,36740.8811,52086.9630,16751.2243,-20483.2951,25400.7683,-535.8607,29560.2938,22309.1420,27053.3892,17729.0237,24713.4968,38392.8538,-0.0289,0.9442,0.2707,192.0000,127.5000,16.0000,14.5000,80.0000,4.0000,32.0000,0.0000,0.0000,0.0000,1623894917.257500,2021-06-16 18:55:17.257499
220.000,65955.2370,53579.3890,-23498.3889,47251.7219,36465.6641,52126.5256,16441.2056,-20678.6493,25426.9869,-555.2397,29563.4901,22275.7262,27168.3666,17620.9530,24710.7699,38327.9220,-0.0289,0.9442,0.2707,192.0000,0.0000,0.0000,0.0000,0.0000,0.0000,0.0000,0.0000,0.0000,0.0000,1623894917.264000,2021-06-16 18:55:17.263999
222.000,65901.1681,53484.1929,-23488.6212,47229.9960,36721.8374,52131.9347,16759.7403,-20466.0619,25390.2629,-500.0309,29547.2404,22319.9379,27021.0015,17768.7204,24693.4250,38386.5730,-0.0289,0.9442,0.2707,192.0000,0.0000,0.0000,0.0000,0.0000,0.0000,0.0000,0.0000,0.0000,0.0000,1623894917.270500,2021-06-16 18:55:17.270499
224.000,65959.0144,53587.6368,-23495.7514,47253.3312,36486.8535,52121.3847,16496.5932,-20660.9914,25421.6671,-577.7255,29565.5912,22264.5503,27207.5045,17611.5430,24723.2198,38349.6926,-0.0289,0.9442,0.2707,192.0000,0.0000,0.0000,0.0000,0.0000,0.0000,0.0000,0.0000,0.0000,0.0000,1623894917.277000,2021-06-16 18:55:17.276999
226.000,65900.0952,53489.6020,-23482.8992,47242.2224,36712.2709,52187.1659,16762.1990,-20455.4448,25394.4204,-462.1000,29547.5086,22339.8310,26993.8218,17802.6727,24688.8652,38384.9190,-0.0289,0.9442,0.2707,192.0000,0.0000,0.0000,0.0000,0.0000,0.0000,0.0000,0.0000,0.0000,0.0000,1623894917.283500,2021-06-16 18:55:17.283499
228.000,65954.6335,53581.0877,-23502.1664,47252.6383,36532.2723,52157.2145,16593.5998,-20599.0548,25432.8654,-601.3066,29581.5503,22248.9711,27266.8037,17627.5021,24740.6989,38382.4603,-0.0265,0.9511,0.2624,192.0000,127.5000,32.0000,14.5000,120.0000,3.5000,120.0000,0.0000,0.0000,0.0000,1623894917.290000,2021-06-16 18:55:17.289999
230.000,65910.8911,53501.2920,-23473.6903,47258.0251,36690.4109,52256.7692,16764.9706,-20433.0037,25401.7741,-428.6394,29554.1694,22355.6784,26985.7081,17832.1323,24687.9264,38386.7295,-0.0265,0.9511,0.2624,192.0000,0.0000,0.0000,0.0000,0.0000,0.0000,0.0000,0.0000,0.0000,0.0000,1623894917.296500,2021-06-16 18:55:17.296499
232.000,65965.2505,53586.4074,-23489.2918,47244.3235,36548.5891,52138.1262,16632.6930,-20589.1976,25430.5408,-620.2609,29584.5454,22242.4891,27279.2536,17621.1989,24755.5181,38391.4010,-0.0265,0.9511,0.2624,192.0000,0.0000,0.0000,0.0000,0.0000,0.0000,0.0000,0.0000,0.0000,0.0000,1623894917.303000,2021-06-16 18:55:17.302999
234.000,65931.2759,53524.7613,-23456.8818,47283.7296,36681.2690,52342.3093,16770.4468,-20414.3623,25416.6604,-400.6997,29566.5970,22379.7065,26998.0016,17857.8592,24697.5377,38389.0317,-0.0265,0.9511,0.2624,192.0000,0.0000,0.0000,0.0000,0.0000,0.0000,0.0000,0.0000,0.0000,0.0000,1623894917.310290,2021-06-16 18:55:17.310285
236.000,65953.0018,53567.9225,-23496.9584,47241.4401,36602.9261,52202.9462,16748.4080,-20501.4223,25448.2657,-624.5524,29607.4336,22251.1169,27334.3506,17657.0735,24776.2158,38427.9237,-0.0265,0.9511,0.2624,192.0000,0.0000,0.0000,0.0000,0.0000,0.0000,0.0000,0.0000,0.0000,0.0000,1623894917.317570,2021-06-16 18:55:17.317571
238.000,65919.2954,53518.8381,-23488.1518,47277.9405,36645.1486,52444.7697,16812.7140,-20344.7143,25413.1064,-404.0748,29565.2112,22370.7211,27026.2095,17880.8591,24685.3113,38384.1143,-0.0265,0.9511,0.2624,192.0000,0.0000,0.0000,0.0000,0.0000,0.0000,0.0000,0.0000,0.0000,0.0000,1623894917.324860,2021-06-16 18:55:17.324857
240.000,65965.9882,53575.2316,-23495.3491,47241.8201,36650.5801,52274.5165,16869.5097,-20400.0348,25462.7944,-627.6817,29622.8116,22253.9556,27390.1629,17699.4971,24776.1264,38458.6797,-0.0140,0.9460,0.2380,192.0000,127.5000,72.0000,14.5000,72.0000,3.5000,56.0000,0.0000,0.0000,0.0000,1623894917.332140,2021-06-16 18:55:17.332142
242.000,65945.6704,53551.8740,-23471.6339,47282.5002,36599.2605,52473.0000,16781.3992,-20350.9281,25427.7915,-392.9660,29571.6932,22378.7007,27048.5836,17875.3606,24682.1820,38374.5031,-0.0140,0.9460,0.2380,192.0000,0.0000,0.0000,0.0000,0.0000,0.0000,0.0000,0.0000,0.0000,0.0000,1623894917.339430,2021-06-16 18:55:17.339428
244.000,65952.0407,53555.8973,-23503.3063,47232.3876,36685.0018,52322.4386,16956.5251,-20322.1837,25462.3026,-625.2901,29625.6950,22263.4551,27382.2281,17719.6583,24770.0244,38466.2346,-0.0140,0.9460,0.2380,192.0000,0.0000,0.0000,0.0000,0.0000,0.0000,0.0000,0.0000,0.0000,0.0000,1623894917.346710,2021-06-16 18:55:17.346714
246.000,65940.4178,53551.1811,-23496.0197,47278.1417,36571.3208,52543.2962,16818.5701,-20292.9700,25431.3231,-407.3829,29576.2976,22372.9116,27092.9071,17871.3373,24673.7778,38376.4253,-0.0140,0.9460,0.2380,192.0000,0.0000,0.0000,0.0000,0.0000,0.0000,0.0000,0.0000,0.0000,0.0000,1623894917.354000,2021-06-16 18:55:17.354000
248.000,65939.9260,53540.4522,-23511.9118,47219.4907,36722.6197,52393.0925,17078.0068,-20206.6475,25456.4688,-635.6389,29622.7222,22263.8574,27395.0803,17758.5057,24756.7698,38480.5844,-0.0140,0.9460,0.2380,192.0000,0.0000,0.0000,0.0000,0.0000,0.0000,0.0000,0.0000,0.0000,0.0000,1623894917.371330,2021-06-16 18:55:17.371333
250.000,65956.3769,53573.1752,-23487.5036,47274.5430,36547.4938,52595.6887,16855.2940,-20238.9235,25441.8955,-430.6734,29581.9973,22364.0379,27164.1868,17872.2313,24673.8672,38384.5166,-0.0080,0.9600,0.2240,192.0000,127.5000,96.0000,15.0000,0.0000,3.5000,0.0000,0.0000,0.0000,0.0000,1623894917.388670,2021-06-16 18:55:17.388666
252.000,65942.5635,53538.4406,-23503.7534,47225.3245,36743.4963,52447.3178,17147.4313,-20127.6788,25453.9431,-613.4436,29617.6484,22285.0021,27375.3661,17787.0489,24749.3714,38490.9556,-0.0080,0.9600,0.2240,192.0000,0.0000,0.0000,0.0000,0.0000,0.0000,0.0000,0.0000,0.0000,0.0000,1623894917.406000,2021-06-16 18:55:17.405999
254.000,65976.7393,53596.8680,-23478.6747,47289.6975,36529.2101,52630.5351,16877.0199,-20207.3628,25452.7584,-439.2341,29597.6659,22367.2789,27222.1896,17861.4131,24691.5027,38405.9967,-0.0080,0.9600,0.2240,192.0000,0.0000,0.0000,0.0000,0.0000,0.0000,0.0000,0.0000,0.0000,0.0000,1623894917.413430,2021-06-16 18:55:17.413428
0.000,65944.3964,53525.9236,-23498.3442,47226.9785,36767.7479,52506.6394,17218.9346,-20045.9832,25454.8595,-584.5652,29623.3257,22302.0565,27361.4856,17828.2878,24748.1420,38501.1927,-0.0080,0.9600,0.2240,192.0000,0.0000,0.0000,0.0000,0.0000,0.0000,0.0000,0.0000,0.0000,0.0000,1623894917.420860,2021-06-16 18:55:17.420856
2.000,65975.6441,53588.1956,-23478.2947,47282.0979,36516.8719,52668.5107,16927.7137,-20148.7342,25469.4999,-479.6684,29608.8194,22352.3927,27290.9882,17846.7951,24709.2947,38419.4077,-0.0080,0.9600,0.2240,192.0000,0.0000,0.0000,0.0000,0.0000,0.0000,0.0000,0.0000,0.0000,0.0000,1623894917.428290,2021-06-16 18:55:17.428285
4.000,65917.9766,53492.2842,-23497.1149,47222.7093,36758.2037,52564.2398,17263.4592,-19974.1223,25450.5456,-591.0695,29613.2898,22312.6736,27341.7714,17860.7873,24737.6814,38501.2598,0.0060,0.9600,0.2240,192.0000,0.0000,24.0000,15.0000,0.0000,3.5000,0.0000,0.0000,0.0000,0.0000,1623894917.435710,2021-06-16 18:55:17.435714
6.000,65954.0523,53566.6708,-23494.9691,47282.4779,36506.6795,52704.2064,16980.0168,-20091.4243,25452.4008,-539.5935,29594.8943,22318.2392,27315.5305,17800.5046,24702.0751,38406.7343,0.0060,0.9600,0.2240,192.0000,0.0000,0.0000,0.0000,0.0000,0.0000,0.0000,0.0000,0.0000,0.0000,1623894917.443140,2021-06-16 18:55:17.443142
8.000,65926.7161,53493.2901,-23480.6640,47249.5761,36764.2610,52646.6060,17312.0743,-19902.7309,25456.3124,-557.3631,29624.5774,22334.3995,27331.9813,17901.2439,24728.0702,38507.5630,0.0060,0.9600,0.2240,192.0000,0.0000,0.0000,0.0000,0.0000,0.0000,0.0000,0.0000,0.0000,0.0000,1623894917.450570,2021-06-16 18:55:17.450571
10.000,65980.8744,53579.8584,-23467.2306,47283.7072,36507.3277,52692.2930,17009.8563,-20066.2115,25481.3240,-562.0570,29636.5580,22321.5025,27399.3495,17797.1742,24724.4045,38439.0773,0.0060,0.9600,0.2240,192.0000,0.0000,0.0000,0.0000,0.0000,0.0000,0.0000,0.0000,0.0000,0.0000,1623894917.458000,2021-06-16 18:55:17.457999
12.000,65908.4324,53471.7430,-23464.1014,47249.3079,36754.1357,52657.6701,17302.8877,-19878.4122,25452.9372,-543.3933,29619.3918,22345.4189,27258.7347,17895.3207,24714.3909,38475.0859,0.0060,0.9600,0.2240,192.0000,0.0000,0.0000,0.0000,0.0000,0.0000,0.0000,0.0000,0.0000,0.0000,1623894917.464500,2021-06-16 18:55:17.464499
14.000,65971.2185,53573.5775,-23476.6407,47266.9658,36517.7436,52661.8275,17057.0185,-20027.6101,25474.6631,-611.6108,29631.3947,22295.3063,27434.0841,17767.8040,24742.8000,38439.2784,0.0160,0.9640,0.2160,192.0000,0.0000,64.0000,15.0000,16.0000,3.0000,96.0000,0.0000,0.0000,0.0000,1623894917.471000,2021-06-16 18:55:17.470999
16.000,65929.8454,53490.7867,-23457.1723,47246.7151,36728.1853,52639.4534,17274.9927,-19878.7027,25438.4980,-524.2602,29607.4336,22352.4150,27217.6298,17895.2760,24708.3559,38460.5573,0.0160,0.9640,0.2160,192.0000,0.0000,0.0000,0.0000,0.0000,0.0000,0.0000,0.0000,0.0000,0.0000,1623894917.477500,2021-06-16 18:55:17.477499
18.000,65988.3175,53582.4735,-23467.6553,47258.6286,36539.2460,52590.9278,17082.5889,-20021.3739,25473.0538,-636.9577,29634.8369,22281.2918,27440.9014,17722.5194,24754.1994,38442.8323,0.0160,0.9640,0.2160,192.0000,0.0000,0.0000,0.0000,0.0000,0.0000,0.0000,0.0000,0.0000,0.0000,1623894917.484000,2021-06-16 18:55:17.483999
20.000,65931.4324,53492.6642,-23449.8633,47246.6480,36699.0834,52624.2766,17238.6264,-19883.1507,25432.3960,-512.1232,29597.2412,22358.0476,27180.3918,17887.6764,24704.5561,38444.3523,0.0160,0.9640,0.2160,192.0000,0.0000,0.0000,0.0000,0.0000,0.0000,0.0000,0.0000,0.0000,0.0000,1623894917.490500,2021-06-16 18:55:17.490499
22.000,65984.8530,53578.3832,-23475.7913,47247.1845,36564.6823,52552.4604,17123.1126,-19999.7821,25466.6389,-676.7885,29622.9234,22256.6154,27460.6380,17698.4912,24765.3529,38450.7449,0.0160,0.9640,0.2160,192.0000,0.0000,0.0000,0.0000,0.0000,0.0000,0.0000,0.0000,0.0000,0.0000,1623894917.497000,2021-06-16 18:55:17.496999
24.000,65953.8288,53517.6758,-23457.9770,47252.8842,36652.9270,52608.0045,17174.0076,-19921.9310,25429.1326,-484.2505,29576.5659,22362.5180,27146.2383,17872.1419,24689.2452,38421.7994,0.0320,0.9640,0.2200,192.0000,0.5000,0.0000,15.0000,16.0000,3.0000,112.0000,0.0000,0.0000,0.0000,1623894917.503500,2021-06-16 18:55:17.503499
26.000,65989.8598,53567.7661,-23496.5785,47230.3089,36592.3314,52505.6559,17156.4838,-19993.7695,25455.4406,-688.6572,29608.5512,22250.0664,27450.1327,17676.6312,24757.8874,38446.7663,0.0320,0.9640,0.2200,192.0000,0.0000,0.0000,0.0000,0.0000,0.0000,0.0000,0.0000,0.0000,0.0000,1623894917.510000,2021-06-16 18:55:17.509999
28.000,65964.2447,53523.6884,-23456.5912,47245.5305,36630.8211,52598.5944,17135.5402,-19942.0476,25440.1967,-488.2515,29572.8331,22359.2546,27144.1820,17855.7134,24679.0975,38391.9151,0.0320,0.9640,0.2200,192.0000,0.0000,0.0000,0.0000,0.0000,0.0000,0.0000,0.0000,0.0000,0.0000,1623894917.517430,2021-06-16 18:55:17.517428
30.000,65976.7170,53551.8293,-23500.5347,47196.2672,36615.3761,52427.2907,17176.3768,-20000.3409,25452.1102,-718.2957,29596.2578,22233.4143,27440.5214,17653.0278,24748.2314,38426.4709,0.0320,0.9640,0.2200,192.0000,0.0000,0.0000,0.0000,0.0000,0.0000,0.0000,0.0000,0.0000,0.0000,1623894917.524860,2021-06-16 18:55:17.524857
32.000,65970.2126,53541.4804,-23476.1266,47244.9493,36607.3518,52600.5837,17125.2808,-19944.1710,25428.1492,-495.5382,29553.9683,22352.2362,27140.7398,17835.4404,24669.5980,38365.9870,0.0320,0.9640,0.2200,192.0000,0.0000,0.0000,0.0000,0.0000,0.0000,0.0000,0.0000,0.0000,0.0000,1623894917.532290,2021-06-16 18:55:17.532285
34.000,65986.9988,53558.1325,-23485.9390,47198.0330,36650.4907,52385.1800,17217.8840,-19991.9143,25459.6204,-710.0032,29593.7097,22242.0421,27441.8849,17663.7119,24754.4676,38427.7449,0.0360,0.9580,0.2040,192.0000,0.5000,16.0000,14.5000,120.0000,3.0000,48.0000,0.0000,0.0000,0.0000,1623894917.539710,2021-06-16 18:55:17.539714
36.000,65974.0795,53544.6320,-23480.4405,47249.7102,36573.4665,52582.7471,17106.3265,-19961.1360,25443.5272,-494.2418,29550.5261,22351.4092,27154.6202,17813.4910,24668.1451,38347.3457,0.0360,0.9580,0.2040,192.0000,0.0000,0.0000,0.0000,0.0000,0.0000,0.0000,0.0000,0.0000,0.0000,1623894917.547140,2021-06-16 18:55:17.547142
38.000,65970.5703,53533.4114,-23507.2402,47197.2730,36690.3662,52416.0701,17321.3503,-19917.0583,25453.2949,-708.9750,29580.1198,22243.1150,27441.1696,17691.5846,24743.9846,38434.0705,0.0360,0.9580,0.2040,192.0000,0.0000,0.0000,0.0000,0.0000,0.0000,0.0000,0.0000,0.0000,0.0000,1623894917.554570,2021-06-16 18:55:17.554571
40.000,65974.9959,53552.7010,-23484.7544,47241.3060,36526.8408,52565.9385,17102.2585,-19963.5500,25443.0578,-505.9541,29541.6971,22340.9933,27194.0264,17805.1761,24658.6009,38345.8928,0.0360,0.9580,0.2040,192.0000,0.0000,0.0000,0.0000,0.0000,0.0000,0.0000,0.0000,0.0000,0.0000,1623894917.562000,2021-06-16 18:55:17.562000
42.000,65965.2505,53528.4717,-23489.5600,47190.1205,36709.2087,52396.9370,17357.8507,-19892.8514,25439.2133,-702.1801,29561.6349,22250.2005,27390.5876,17700.3688,24720.5376,38427.4543,0.0360,0.9580,0.2040,192.0000,0.0000,0.0000,0.0000,0.0000,0.0000,0.0000,0.0000,0.0000,0.0000,1623894917.568380,2021-06-16 18:55:17.568375
44.000,65982.3273,53563.4298,-23484.9555,47233.3264,36499.3929,52544.9279,17097.2517,-19969.9649,25442.2755,-520.3039,29539.0149,22331.6279,27217.4063,17781.6621,24652.0295,38345.3117,0.0460,0.9680,0.1900,192.0000,0.5000,56.0000,15.0000,32.0000,2.5000,120.0000,0.0000,0.0000,0.0000,1623894917.574750,2021-06-16 18:55:17.574749
46.000,65948.1515,53493.2007,-23498.9701,47176.3071,36728.1853,52410.2586,17413.1712,-19845.3763,25424.4611,-689.2160,29552.8283,22247.7865,27354.9142,17723.1676,24703.1703,38421.6205,0.0460,0.9680,0.1900,192.0000,0.0000,0.0000,0.0000,0.0000,0.0000,0.0000,0.0000,0.0000,0.0000,1623894917.581130,2021-06-16 18:55:17.581125
48.000,65984.4507,53552.8575,-23477.5124,47224.4528,36487.2559,52528.5217,17106.0135,-19966.5004,25441.5379,-553.6751,29545.0499,22307.9574,27259.2488,17756.1364,24660.9479,38347.9492,0.0460,0.9680,0.1900,192.0000,0.0000,0.0000,0.0000,0.0000,0.0000,0.0000,0.0000,0.0000,0.0000,1623894917.587500,2021-06-16 18:55:17.587500
50.000,65937.5791,53474.4252,-23484.3968,47176.9106,36745.1726,52413.9020,17430.3821,-19821.2141,25413.5758,-669.4794,29541.8760,22254.4026,27302.6782,17735.5951,24692.5979,38414.1104,0.0460,0.9680,0.1900,192.0000,0.0000,0.0000,0.0000,0.0000,0.0000,0.0000,0.0000,0.0000,0.0000,1623894917.593870,2021-06-16 18:55:17.593874
52.000,65977.0746,53548.5659,-23484.6873,47220.2953,36489.6922,52521.5703,17137.3507,-19939.0748,25428.8197,-585.5263,29541.4513,22285.9409,27293.8940,17729.8060,24667.1393,38357.2028,0.0460,0.9680,0.1900,192.0000,0.0000,0.0000,0.0000,0.0000,0.0000,0.0000,0.0000,0.0000,0.0000,1623894917.600250,2021-06-16 18:55:17.600250
54.000,65939.9484,53476.0345,-23474.6067,47179.7493,36745.0832,52434.5997,17443.3461,-19790.7039,25401.6623,-639.3717,29532.2200,22263.9468,27255.0019,17754.2365,24678.5611,38411.7634,0.0460,0.9820,0.1820,192.0000,0.5000,56.0000,15.0000,88.0000,2.5000,88.0000,0.0000,0.0000,0.0000,1623894917.606620,2021-06-16 18:55:17.606624
56.000,65995.5819,53563.3851,-23479.9488,47212.6734,36493.9614,52512.9873,17162.3176,-19922.7357,25431.4125,-616.4611,29549.5203,22267.9701,27324.8735,17699.1171,24679.4775,38366.8811,0.0460,0.9820,0.1820,192.0000,0.0000,0.0000,0.0000,0.0000,0.0000,0.0000,0.0000,0.0000,0.0000,1623894917.613000,2021-06-16 18:55:17.612999
58.000,65944.8434,53475.8110,-23475.0090,47183.4597,36736.5896,52455.4315,17431.9243,-19777.4493,25397.1920,-619.6798,29535.5951,22277.8272,27206.6328,17770.3297,24672.0790,38406.3319,0.0460,0.9820,0.1820,192.0000,0.0000,0.0000,0.0000,0.0000,0.0000,0.0000,0.0000,0.0000,0.0000,1623894917.620430,2021-06-16 18:55:17.620428
60.000,65999.0911,53567.2967,-23482.9886,47211.6899,36503.8856,52479.0126,17172.5100,-19921.7969,25411.1842,-661.1422,29540.0431,22244.5455,27316.2457,17652.7596,24684.3725,38357.5157,0.0460,0.9820,0.1820,192.0000,0.0000,0.0000,0.0000,0.0000,0.0000,0.0000,0.0000,0.0000,0.0000,1623894917.627860,2021-06-16 18:55:17.627856
62.000,65932.6170,53463.2493,-23489.7612,47193.4509,36740.9258,52530.9804,17459.7970,-19718.6196,25401.0141,-591.6060,29542.7253,22300.1566,27193.5793,17809.4677,24667.5640,38414.4903,0.0460,0.9820,0.1820,192.0000,0.0000,0.0000,0.0000,0.0000,0.0000,0.0000,0.0000,0.0000,0.0000,1623894917.635290,2021-06-16 18:55:17.635285
64.000,66003.1144,53566.4473,-23496.6902,47210.5276,36524.2704,52515.2895,17254.4738,-19848.6844,25428.9315,-688.2549,29565.1665,22236.6330,27406.6362,17681.6380,24696.5319,38396.8548,0.0520,0.9860,0.1660,192.0000,0.5000,80.0000,15.0000,104.0000,2.5000,24.0000,0.0000,0.0000,0.0000,1623894917.642710,2021-06-16 18:55:17.642714
66.000,65961.6966,53489.9597,-23463.1849,47213.3663,36692.6684,52521.6597,17398.6873,-19741.2619,25396.6332,-571.1318,29538.0762,22311.7125,27139.1975,17807.4560,24639.7137,38386.1036,0.0520,0.9860,0.1660,192.0000,0.0000,0.0000,0.0000,0.0000,0.0000,0.0000,0.0000,0.0000,0.0000,1623894917.650140,2021-06-16 18:55:17.650142
68.000,66019.4535,53578.8972,-23472.0809,47224.7657,36545.4598,52473.1788,17274.3669,-19838.5143,25430.5184,-698.5144,29575.4259,22239.2481,27402.6799,17658.8392,24698.4318,38393.6138,0.0520,0.9860,0.1660,192.0000,0.0000,0.0000,0.0000,0.0000,0.0000,0.0000,0.0000,0.0000,0.0000,1623894917.657570,2021-06-16 18:55:17.657571
70.000,65989.5022,53521.4533,-23427.0869,47233.2146,36660.7501,52507.1087,17339.5893,-19761.1996,25398.1755,-540.5546,29541.3395,22333.4607,27109.0003,17816.1285,24641.6360,38374.6595,0.0520,0.9860,0.1660,192.0000,0.0000,0.0000,0.0000,0.0000,0.0000,0.0000,0.0000,0.0000,0.0000,1623894917.665000,2021-06-16 18:55:17.664999
72.000,66023.7227,53577.5114,-23461.4192,47226.6209,36577.9145,52446.9155,17306.6652,-19816.0732,25433.2677,-711.1431,29584.0984,22247.0042,27404.9374,17652.0443,24713.3851,38402.4204,0.0520,0.9860,0.1660,192.0000,0.0000,0.0000,0.0000,0.0000,0.0000,0.0000,0.0000,0.0000,0.0000,1623894917.671500,2021-06-16 18:55:17.671499
74.000,65982.8637,53518.3911,-23446.0859,47235.6957,36623.6909,52537.7753,17315.0024,-19742.5806,25394.6886,-538.1630,29544.3123,22340.4568,27096.4387,17820.8894,24626.4815,38363.7295,0.0540,0.9880,0.1620,192.0000,0.5000,96.0000,15.0000,120.0000,2.0000,120.0000,0.0000,0.0000,0.0000,1623894917.678000,2021-06-16 18:55:17.677999
76.000,66017.2184,53573.5999,-23467.1412,47219.3789,36601.8533,52435.0691,17344.8866,-19780.0421,25419.5214,-734.1430,29583.5843,22234.3307,27403.9540,17650.2562,24696.9565,38403.0686,0.0540,0.9880,0.1620,192.0000,0.0000,0.0000,0.0000,0.0000,0.0000,0.0000,0.0000,0.0000,0.0000,1623894917.684500,2021-06-16 18:55:17.684499
78.000,65988.5187,53537.7030,-23439.9168,47241.0601,36585.3577,52533.1038,17251.4564,-19762.5407,25396.2756,-526.2271,29541.0713,22341.9320,27077.1715,17803.1198,24616.4679,38346.9657,0.0540,0.9880,0.1620,192.0000,0.0000,0.0000,0.0000,0.0000,0.0000,0.0000,0.0000,0.0000,0.0000,1623894917.691000,2021-06-16 18:55:17.690999
80.000,66006.7130,53564.2569,-23476.1937,47212.8522,36636.0067,52423.2227,17379.3307,-19748.3921,25411.8771,-741.6756,29573.8837,22235.3142,27382.5633,17655.3971,24698.7670,38410.1541,0.0540,0.9880,0.1620,192.0000,0.0000,0.0000,0.0000,0.0000,0.0000,0.0000,0.0000,0.0000,0.0000,1623894917.697500,2021-06-16 18:55:17.697499
82.000,66005.1037,53553.5951,-23448.2093,47245.7763,36552.8359,52546.1572,17218.2193,-19764.6194,25398.5331,-539.5711,29540.1772,22348.1458,27093.8235,17805.4443,24617.8984,38347.3457,0.0540,0.9880,0.1620,192.0000,0.0000,0.0000,0.0000,0.0000,0.0000,0.0000,0.0000,0.0000,0.0000,1623894917.704000,2021-06-16 18:55:17.703999
84.000,66001.7286,53549.7953,-23472.4609,47191.1934,36646.7132,52368.4832,17365.3161,-19758.9197,25406.2221,-749.8116,29569.9274,22239.7846,27343.5372,17656.9617,24692.5532,38404.0297,0.0570,0.9870,0.1580,192.0000,0.5000,112.0000,15.0000,104.0000,2.0000,104.0000,0.0000,0.0000,0.0000,1623894917.710500,2021-06-16 18:55:17.710500
86.000,66005.5507,53562.1111,-23449.7515,47251.6995,36539.9389,52569.4701,17202.0366,-19748.4815,25398.9131,-557.0278,29543.9994,22337.0594,27095.9693,17782.5562,24623.2405,38333.7335,0.0570,0.9870,0.1580,192.0000,0.0000,0.0000,0.0000,0.0000,0.0000,0.0000,0.0000,0.0000,0.0000,1623894917.717000,2021-06-16 18:55:17.717000
88.000,65995.1348,53537.1889,-23467.6776,47194.5461,36688.9580,52404.0672,17420.7261,-19693.6079,25412.3912,-736.0429,29579.0022,22254.6708,27343.0455,17697.5078,24705.8078,38429.8683,0.0570,0.9870,0.1580,192.0000,0.0000,0.0000,0.0000,0.0000,0.0000,0.0000,0.0000,0.0000,0.0000,1623894917.775430,2021-06-16 18:55:17.775428
90.000,66028.8413,53585.5357,-23439.5145,47257.3098,36515.6202,52576.8015,17175.8180,-19746.5816,25408.5690,-556.4243,29549.0509,22334.1313,27137.0294,17776.4541,24637.4785,38350.0055,0.0570,0.9870,0.1580,192.0000,0.0000,0.0000,0.0000,0.0000,0.0000,0.0000,0.0000,0.0000,0.0000,1623894917.782860,2021-06-16 18:55:17.782856
92.000,65998.9570,53533.7020,-23461.6203,47205.5432,36720.7422,52450.0000,17451.3704,-19652.4584,25413.3299,-698.5814,29574.5989,22272.4405,27306.5898,17720.5524,24708.3783,38438.5632,0.0570,0.9870,0.1580,192.0000,0.0000,0.0000,0.0000,0.0000,0.0000,0.0000,0.0000,0.0000,0.0000,1623894917.790290,2021-06-16 18:55:17.790285
94.000,66037.1561,53594.6329,-23439.7603,47245.8210,36481.8244,52555.8356,17130.4440,-19775.7283,25420.3931,-568.2931,29554.7506,22331.1361,27181.9564,17766.7982,24659.6962,38367.9764,0.0555,0.9805,0.1500,192.0000,0.5000,88.0000,15.0000,56.0000,2.0000,56.0000,0.0000,0.0000,0.0000,1623894917.797710,2021-06-16 18:55:17.797714
96.000,65993.2349,53528.7846,-23459.4746,47201.1622,36729.8841,52457.8455,17444.3743,-19642.3778,25393.8169,-692.6359,29553.2977,22276.7767,27241.2556,17725.7604,24692.1509,38423.9228,0.0555,0.9805,0.1500,192.0000,0.0000,0.0000,0.0000,0.0000,0.0000,0.0000,0.0000,0.0000,0.0000,1623894917.805140,2021-06-16 18:55:17.805142
98.000,66037.4690,53605.2723,-23452.9031,47245.2175,36475.8788,52567.3467,17144.3468,-19754.5388,25419.8790,-588.3426,29559.6680,22321.5472,27216.7134,17750.3249,24668.8380,38376.6265,0.0555,0.9805,0.1500,192.0000,0.0000,0.0000,0.0000,0.0000,0.0000,0.0000,0.0000,0.0000,0.0000,1623894917.812570,2021-06-16 18:55:17.812571
100.000,65994.0172,53527.6670,-23456.0994,47207.2419,36733.4603,52486.8804,17441.5579,-19620.7189,25391.2241,-658.2589,29550.9731,22294.3452,27195.7251,17756.7175,24687.1218,38417.9772,0.0555,0.9805,0.1500,192.0000,0.0000,0.0000,0.0000,0.0000,0.0000,0.0000,0.0000,0.0000,0.0000,1623894917.820000,2021-06-16 18:55:17.819999
102.000,66042.3194,53614.3471,-23457.0829,47240.7025,36466.3346,52558.8530,17141.2399,-19746.9616,25423.0977,-615.3882,29564.0265,22311.0419,27248.9446,17732.6224,24675.8788,38374.9948,0.0555,0.9805,0.1500,192.0000,0.0000,0.0000,0.0000,0.0000,0.0000,0.0000,0.0000,0.0000,0.0000,1623894917.826500,2021-06-16 18:55:17.826499
104.000,65991.0668,53525.7224,-23455.7195,47207.6890,36718.1494,52512.2049,17424.4141,-19602.5022,25383.6692,-644.5349,29543.5523,22301.8554,27155.6708,17780.7010,24664.0548,38404.6779,0.0598,0.9833,0.1450,192.0000,1.0000,0.0000,15.0000,104.0000,2.0000,48.0000,0.0000,0.0000,0.0000,1623894917.833000,2021-06-16 18:55:17.832999
106.000,66047.4379,53608.0439,-23464.5037,47232.3206,36474.6495,52550.8735,17156.8638,-19731.2706,25425.8916,-653.6097,29568.2287,22291.0818,27282.8299,17710.7400,24677.6446,38377.5429,0.0598,0.9833,0.1450,192.0000,0.0000,0.0000,0.0000,0.0000,0.0000,0.0000,0.0000,0.0000,0.0000,1623894917.839500,2021-06-16 18:55:17.839499
108.000,65975.8900,53508.4222,-23466.3142,47206.0349,36710.6616,52543.2068,17414.2665,-19577.5800,25385.2785,-619.6798,29542.3454,22311.1313,27114.4765,17794.5814,24644.6982,38395.4243,0.0598,0.9833,0.1450,192.0000,0.0000,0.0000,0.0000,0.0000,0.0000,0.0000,0.0000,0.0000,0.0000,1623894917.846000,2021-06-16 18:55:17.845999
110.000,66036.0162,53603.6183,-23473.0868,47222.3964,36490.0275,52551.0076,17201.2320,-19690.7469,25415.6992,-679.3142,29568.9663,22270.2947,27314.5917,17698.3571,24678.9857,38387.6906,0.0598,0.9833,0.1450,192.0000,0.0000,0.0000,0.0000,0.0000,0.0000,0.0000,0.0000,0.0000,0.0000,1623894917.852500,2021-06-16 18:55:17.852499
112.000,65986.8423,53523.8225,-23448.1646,47212.4275,36677.7151,52550.0241,17365.6514,-19583.4138,25380.4058,-598.0656,29538.9032,22320.5414,27082.3347,17809.7806,24632.8964,38387.8247,0.0598,0.9833,0.1450,192.0000,0.0000,0.0000,0.0000,0.0000,0.0000,0.0000,0.0000,0.0000,0.0000,1623894917.859000,2021-06-16 18:55:17.858999
114.000,66045.8509,53610.7485,-23456.6359,47225.1904,36501.3822,52500.0009,17195.3088,-19701.4534,25402.1317,-708.5503,29561.9031,22251.6310,27295.4586,17662.5049,24679.4998,38376.3583,0.0639,0.9846,0.1435,192.0000,1.0000,16.0000,15.0000,104.0000,2.0000,56.0000,0.0000,0.0000,0.0000,1623894917.865500,2021-06-16 18:55:17.865499
116.000,65992.0726,53529.1423,-23445.1471,47228.3643,36663.0747,52590.3019,17341.4668,-19568.7735,25396.5661,-568.6731,29553.8118,22341.2838,27077.5738,17832.6241,24635.8469,38391.9151,0.0639,0.9846,0.1435,192.0000,0.0000,0.0000,0.0000,0.0000,0.0000,0.0000,0.0000,0.0000,0.0000,1623894917.872000,2021-06-16 18:55:17.871999
118.000,66044.4875,53603.9759,-23460.6816,47222.2846,36549.0584,52524.3643,17258.0054,-19648.0551,25422.3824,-715.7476,29584.6796,22251.3628,27356.8141,17680.1852,24695.1013,38408.7906,0.0639,0.9846,0.1435,192.0000,0.0000,0.0000,0.0000,0.0000,0.0000,0.0000,0.0000,0.0000,0.0000,1623894917.879430,2021-06-16 18:55:17.879428
120.000,66000.5216,53540.9216,-23440.1627,47231.9182,36626.3061,52588.6032,17275.7080,-19586.7443,25393.0122,-556.2232,29548.3133,22337.8417,27052.4504,17828.0643,24624.3581,38372.3796,0.0639,0.9846,0.1435,192.0000,0.0000,0.0000,0.0000,0.0000,0.0000,0.0000,0.0000,0.0000,0.0000,1623894917.886860,2021-06-16 18:55:17.886857
122.000,66024.5721,53586.4968,-23479.5017,47224.1622,36595.2148,52539.2059,17320.9479,-19589.6500,25408.0326,-731.7514,29586.4006,22243.5397,27362.4691,17682.8674,24705.3384,38415.5856,0.0639,0.9846,0.1435,192.0000,0.0000,0.0000,0.0000,0.0000,0.0000,0.0000,0.0000,0.0000,0.0000,1623894917.894290,2021-06-16 18:55:17.894285
124.000,66012.8151,53560.3229,-23438.0169,47237.1486,36593.1808,52604.4506,17234.8937,-19588.6442,25386.6867,-544.9802,29546.6369,22338.6910,27057.2784,17826.7008,24625.4310,38365.8529,0.0709,0.9833,0.1428,192.0000,1.0000,56.0000,15.0000,88.0000,2.0000,56.0000,0.0000,0.0000,0.0000,1623894917.901710,2021-06-16 18:55:17.901714
126.000,66040.4642,53599.6397,-23455.1160,47224.1622,36624.8532,52509.6121,17322.9596,-19592.3769,25407.2279,-726.2305,29584.6572,22251.1616,27341.7043,17673.1444,24713.7203,38422.3358,0.0709,0.9833,0.1428,192.0000,0.0000,0.0000,0.0000,0.0000,0.0000,0.0000,0.0000,0.0000,0.0000,1623894917.909140,2021-06-16 18:55:17.909142
128.000,66024.5050,53579.0314,-23428.9197,47253.9794,36566.8504,52611.6255,17185.1387,-19602.0105,25396.9685,-531.1892,29559.9809,22357.9135,27058.9548,17821.6270,24641.9042,38372.9831,0.0709,0.9833,0.1428,192.0000,0.0000,0.0000,0.0000,0.0000,0.0000,0.0000,0.0000,0.0000,0.0000,1623894917.916570,2021-06-16 18:55:17.916571
130.000,66030.3835,53583.5241,-23453.9984,47226.5538,36661.6889,52503.9572,17358.3200,-19560.3916,25405.5962,-725.8505,29592.0780,22262.1140,27330.5508,17684.9684,24724.4268,38435.7245,0.0709,0.9833,0.1428,192.0000,0.0000,0.0000,0.0000,0.0000,0.0000,0.0000,0.0000,0.0000,0.0000,1623894917.924000,2021-06-16 18:55:17.924000
132.000,66016.9278,53571.0294,-23444.8118,47249.9114,36535.5580,52632.1891,17170.5430,-19580.1505,25398.8684,-540.3311,29564.9206,22352.5491,27089.6884,17813.5357,24650.2637,38373.4078,0.0709,0.9833,0.1428,192.0000,0.0000,0.0000,0.0000,0.0000,0.0000,0.0000,0.0000,0.0000,0.0000,1623894917.930500,2021-06-16 18:55:17.930500
134.000,66004.4555,53548.7000,-23476.0148,47206.0573,36684.3983,52530.5557,17419.3403,-19493.1799,25389.4359,-731.6620,29580.5668,22251.6533,27315.2846,17700.5923,24719.0401,38431.8129,0.0745,0.9847,0.1424,192.0000,1.0000,56.0000,15.0000,104.0000,2.0000,56.0000,0.0000,0.0000,0.0000,1623894917.937000,2021-06-16 18:55:17.937000
136.000,66021.0181,53578.7631,-23453.9760,47242.6024,36505.5843,52649.2435,17169.8054,-19555.6530,25400.0977,-555.2844,29566.7758,22336.1876,27123.4619,17801.1975,24648.3862,38366.9258,0.0745,0.9847,0.1424,192.0000,0.0000,0.0000,0.0000,0.0000,0.0000,0.0000,0.0000,0.0000,0.0000,1623894917.943500,2021-06-16 18:55:17.943500
138.000,66017.4195,53557.6407,-23458.4911,47197.7424,36688.8686,52486.4110,17406.9351,-19501.4500,25378.9083,-720.8661,29571.1791,22251.8545,27281.0864,17711.3435,24709.2276,38425.7556,0.0745,0.9847,0.1424,192.0000,0.0000,0.0000,0.0000,0.0000,0.0000,0.0000,0.0000,0.0000,0.0000,1623894917.950000,2021-06-16 18:55:17.950000
140.000,66044.6439,53605.3841,-23430.4843,47258.9639,36493.6932,52621.7061,17125.0796,-19589.9406,25402.6458,-552.6916,29564.4065,22335.2936,27113.8954,17755.7788,24660.5903,38355.3476,0.0745,0.9847,0.1424,192.0000,0.0000,0.0000,0.0000,0.0000,0.0000,0.0000,0.0000,0.0000,0.0000,1623894917.956500,2021-06-16 18:55:17.956500
142.000,65998.2417,53535.5796,-23461.2627,47203.5762,36714.3496,52510.8191,17431.4773,-19470.8281,25385.3232,-684.6563,29577.1023,22274.7874,27255.8960,17740.9149,24713.4745,38436.7527,0.0745,0.9847,0.1424,192.0000,0.0000,0.0000,0.0000,0.0000,0.0000,0.0000,0.0000,0.0000,0.0000,1623894917.963000,2021-06-16 18:55:17.963000
144.000,66047.5944,53611.4190,-23442.0625,47257.9580,36478.9187,52615.7829,17123.2020,-19582.6762,25401.3494,-577.4350,29571.7155,22318.7309,27162.4210,17744.5358,24673.2637,38368.0434,0.0782,0.9783,0.1402,192.0000,1.0000,72.0000,15.0000,48.0000,2.0000,40.0000,0.0000,0.0000,0.0000,1623894917.969500,2021-06-16 18:55:17.969500
146.000,66008.5682,53541.5698,-23449.0810,47216.6744,36733.5274,52532.7909,17423.2072,-19461.9768,25387.7596,-651.7098,29578.6222,22287.6173,27210.4326,17751.3755,24699.5493,38430.1589,0.0782,0.9783,0.1402,192.0000,0.0000,0.0000,0.0000,0.0000,0.0000,0.0000,0.0000,0.0000,0.0000,1623894917.976000,2021-06-16 18:55:17.976000
148.000,66047.3932,53608.8039,-23450.5339,47246.1563,36467.8993,52607.7587,17118.9329,-19579.3905,25410.4689,-592.9694,29587.2053,22316.2946,27221.3402,17738.5009,24686.2053,38385.6789,0.0782,0.9783,0.1402,192.0000,0.0000,0.0000,0.0000,0.0000,0.0000,0.0000,0.0000,0.0000,0.0000,1623894917.983430,2021-06-16 18:55:17.983428
150.000,65990.8656,53523.5096,-23454.5795,47207.5995,36728.9900,52543.2515,17420.2120,-19439.1110,25368.6935,-645.3619,29560.9644,22292.4676,27154.8214,17765.0771,24685.5571,38412.0093,0.0782,0.9783,0.1402,192.0000,0.0000,0.0000,0.0000,0.0000,0.0000,0.0000,0.0000,0.0000,0.0000,1623894917.990860,2021-06-16 18:55:17.990857
152.000,66052.6235,53618.3704,-23447.1364,47239.1379,36472.9060,52571.2583,17132.0086,-19574.2720,25407.2279,-624.8430,29583.1820,22295.3510,27263.5627,17722.5641,24702.7680,38389.4564,0.0782,0.9783,0.1402,192.0000,0.0000,0.0000,0.0000,0.0000,0.0000,0.0000,0.0000,0.0000,0.0000,1623894917.998290,2021-06-16 18:55:17.998285
154.000,65993.1679,53530.3940,-23435.0218,47214.9309,36715.0201,52532.0533,17381.7447,-19453.8631,25371.8228,-610.8955,29557.7010,22307.8680,27115.5047,17779.7622,24676.9294,38406.1978,0.0781,0.9782,0.1371,192.0000,1.0000,56.0000,15.0000,72.0000,2.0000,24.0000,0.0000,0.0000,0.0000,1623894918.005710,2021-06-16 18:55:18.005714
156.000,66058.4573,53624.4501,-23434.1947,47236.5898,36490.3181,52537.7083,17141.9999,-19579.3011,25406.1103,-648.8935,29587.9653,22285.1586,27290.8988,17699.5194,24699.9740,38397.6148,0.0781,0.9782,0.1371,192.0000,0.0000,0.0000,0.0000,0.0000,0.0000,0.0000,0.0000,0.0000,0.0000,1623894918.013140,2021-06-16 18:55:18.013143
158.000,65992.8102,53525.9683,-23421.5436,47218.9989,36697.8764,52529.9299,17346.2054,-19466.7154,25367.9559,-586.6215,29554.3035,22322.6872,27082.0441,17787.2277,24655.8517,38394.4632,0.0781,0.9782,0.1371,192.0000,0.0000,0.0000,0.0000,0.0000,0.0000,0.0000,0.0000,0.0000,0.0000,1623894918.020570,2021-06-16 18:55:18.020571
160.000,66057.0715,53615.0624,-23439.2015,47236.9474,36508.5347,52527.1136,17182.3448,-19558.6034,25402.0870,-678.8001,29581.4386,22270.9653,27321.2749,17683.2697,24703.6844,38399.4029,0.0781,0.9782,0.1371,192.0000,0.0000,0.0000,0.0000,0.0000,0.0000,0.0000,0.0000,0.0000,0.0000,1623894918.028000,2021-06-16 18:55:18.028000
162.000,66001.7062,53533.5456,-23424.2929,47226.3750,36662.6277,52545.2185,17296.8974,-19483.7698,25368.4923,-569.3883,29540.5796,22333.5278,27055.2891,17793.0838,24649.1909,38381.0298,0.0781,0.9782,0.1371,192.0000,0.0000,0.0000,0.0000,0.0000,0.0000,0.0000,0.0000,0.0000,0.0000,1623894918.034380,2021-06-16 18:55:18.034375
164.000,66060.6478,53616.2247,-23445.1694,47235.0922,36530.9982,52519.5363,17205.7247,-19551.4062,25398.0414,-699.7661,29568.8992,22258.1801,27333.1213,17666.5059,24715.4191,38402.8004,0.0781,0.9782,0.1371,192.0000,0.0000,0.0000,0.0000,0.0000,0.0000,0.0000,0.0000,0.0000,0.0000,1623894918.040750,2021-06-16 18:55:18.040750
166.000,66013.1727,53549.4153,-23419.4873,47232.2759,36625.3226,52552.6840,17236.8383,-19508.7590,25367.3077,-557.0055,29532.8012,22338.5569,27039.0170,17797.9342,24651.7166,38372.1561,0.0820,0.9800,0.1340,192.0000,1.0000,72.0000,15.0000,80.0000,2.0000,24.0000,0.0000,0.0000,0.0000,1623894918.047130,2021-06-16 18:55:18.047125
168.000,66056.7809,53612.9613,-23442.0849,47224.8551,36545.1469,52453.5987,17192.4254,-19580.7540,25389.1454,-722.2743,29555.8905,22247.8759,27309.0261,17639.5720,24724.2927,38388.8082,0.0820,0.9800,0.1340,192.0000,0.0000,0.0000,0.0000,0.0000,0.0000,0.0000,0.0000,0.0000,0.0000,1623894918.053500,2021-06-16 18:55:18.053500
170.000,66033.4234,53576.1033,-23413.0500,47254.5382,36611.1292,52561.0882,17193.0065,-19524.6064,25391.9617,-534.8102,29536.2210,22358.6511,27044.7838,17805.3773,24663.4066,38368.7810,0.0820,0.9800,0.1340,192.0000,0.0000,0.0000,0.0000,0.0000,0.0000,0.0000,0.0000,0.0000,0.0000,1623894918.059880,2021-06-16 18:55:18.059875
172.000,66051.9977,53606.8369,-23448.4775,47239.7190,36609.1399,52480.5102,17275.9315,-19523.1535,25407.2726,-709.6455,29569.1004,22264.9973,27357.9317,17672.4738,24747.9185,38424.4816,0.0820,0.9800,0.1340,192.0000,0.0000,0.0000,0.0000,0.0000,0.0000,0.0000,0.0000,0.0000,0.0000,1623894918.066250,2021-06-16 18:55:18.066250
174.000,66033.8033,53579.7913,-23417.6321,47254.7394,36566.5375,52540.6811,17148.3030,-19550.4227,25393.1687,-527.4565,29534.0976,22359.7687,27057.8148,17804.7961,24664.6806,38368.1328,0.0820,0.9800,0.1340,192.0000,0.0000,0.0000,0.0000,0.0000,0.0000,0.0000,0.0000,0.0000,0.0000,1623894918.072620,2021-06-16 18:55:18.072624
176.000,66029.4001,53581.8700,-23456.9265,47224.2292,36646.4450,52460.5054,17328.0781,-19491.0117,25391.1123,-727.0575,29555.9576,22257.3083,27341.6149,17677.4359,24736.1615,38422.5593,0.0840,0.9760,0.1420,192.0000,1.0000,80.0000,15.0000,64.0000,2.0000,56.0000,0.0000,0.0000,0.0000,1623894918.079000,2021-06-16 18:55:18.078999
178.000,66035.8821,53589.9390,-23415.0169,47249.6208,36536.0050,52525.9960,17111.8474,-19561.3080,25395.2027,-535.1678,29529.2919,22357.3100,27076.6127,17801.2199,24656.9469,38358.1863,0.0840,0.9760,0.1420,192.0000,0.0000,0.0000,0.0000,0.0000,0.0000,0.0000,0.0000,0.0000,0.0000,1623894918.138290,2021-06-16 18:55:18.138285
180.000,66024.4827,53574.1140,-23447.1587,47215.8250,36679.6597,52425.8378,17340.5951,-19492.8446,25386.2396,-719.5474,29541.8760,22264.0362,27308.6908,17675.1337,24734.4628,38410.6458,0.0840,0.9760,0.1420,192.0000,0.0000,0.0000,0.0000,0.0000,0.0000,0.0000,0.0000,0.0000,0.0000,1623894918.145570,2021-06-16 18:55:18.145571
182.000,66025.2873,53584.2617,-23429.9032,47245.0387,36519.7777,52534.0426,17111.1768,-19544.6559,25393.0793,-544.3991,29524.2181,22352.1468,27108.8662,17795.0284,24667.2064,38355.2135,0.0840,0.9760,0.1420,192.0000,0.0000,0.0000,0.0000,0.0000,0.0000,0.0000,0.0000,0.0000,0.0000,1623894918.152860,2021-06-16 18:55:18.152857
184.000,65997.3477,53540.6311,-23458.8487,47208.2030,36713.5002,52449.5754,17413.2159,-19428.0469,25367.9112,-724.7330,29529.2919,22258.2471,27295.3915,17701.1511,24729.5007,38414.6915,0.0840,0.9760,0.1420,192.0000,0.0000,0.0000,0.0000,0.0000,0.0000,0.0000,0.0000,0.0000,0.0000,1623894918.160140,2021-06-16 18:55:18.160142
186.000,66038.2960,53597.5386,-23422.0354,47250.7831,36496.2413,52539.0270,17117.0553,-19535.2011,25393.1240,-564.9403,29528.5096,22339.7863,27157.0119,17787.9429,24679.4104,38365.7188,0.0840,0.9880,0.1420,192.0000,1.0000,80.0000,15.0000,112.0000,2.0000,56.0000,0.0000,0.0000,0.0000,1623894918.167430,2021-06-16 18:55:18.167428
188.000,65991.6256,53532.5397,-23448.2763,47208.3148,36731.8063,52460.4830,17443.8378,-19405.0916,25360.6692,-709.3103,29528.5096,22268.1936,27263.2274,17714.6516,24735.4239,38415.2950,0.0840,0.9880,0.1420,192.0000,0.0000,0.0000,0.0000,0.0000,0.0000,0.0000,0.0000,0.0000,0.0000,1623894918.174710,2021-06-16 18:55:18.174714
190.000,66042.0735,53603.1265,-23429.2326,47242.1777,36480.8186,52538.1330,17126.6442,-19526.6851,25392.2076,-592.9918,29534.3434,22321.1002,27199.7931,17767.6252,24692.1956,38373.8772,0.0840,0.9880,0.1420,192.0000,0.0000,0.0000,0.0000,0.0000,0.0000,0.0000,0.0000,0.0000,0.0000,1623894918.182000,2021-06-16 18:55:18.181999
192.000,66001.7062,53540.2734,-23431.4455,47197.6977,36727.0230,52421.9710,17420.7932,-19426.1246,25359.3058,-694.1558,29520.9771,22270.4959,27224.0448,17719.6360,24663.1607,38407.4942,0.0840,0.9880,0.1420,192.0000,0.0000,0.0000,0.0000,0.0000,0.0000,0.0000,0.0000,0.0000,0.0000,1623894918.188500,2021-06-16 18:55:18.188499
194.000,66056.3339,53620.1586,-23419.9343,47243.0941,36478.8516,52502.8172,17116.4295,-19545.2818,25385.0773,-613.1084,29528.2638,22309.7455,27193.9593,17711.6117,24601.7158,38356.0182,0.0840,0.9880,0.1420,192.0000,0.0000,0.0000,0.0000,0.0000,0.0000,0.0000,0.0000,0.0000,0.0000,1623894918.195000,2021-06-16 18:55:18.194999
196.000,65996.4312,53526.9965,-23445.6835,47195.0379,36729.4817,52445.5297,17437.1993,-19401.0236,25369.6323,-672.7652,29527.6156,22290.2995,27208.9350,17752.1131,24592.1045,38413.0375,0.0760,0.9860,0.1520,192.0000,1.0000,48.0000,15.0000,104.0000,2.0000,96.0000,0.0000,0.0000,0.0000,1623894918.201500,2021-06-16 18:55:18.201499
198.000,66057.1162,53619.5774,-23430.8420,47237.3721,36474.2695,52497.5869,17139.1165,-19534.1730,25386.1055,-651.0393,29528.4873,22286.7232,27244.5190,17692.5680,24568.2105,38363.2378,0.0760,0.9860,0.1520,192.0000,0.0000,0.0000,0.0000,0.0000,0.0000,0.0000,0.0000,0.0000,0.0000,1623894918.208000,2021-06-16 18:55:18.207999
200.000,65982.8190,53519.7098,-23445.1247,47211.0417,36739.8529,52495.7988,17454.2090,-19372.5922,25366.9948,-647.7089,29523.3240,22298.7038,27180.3471,17774.6436,24556.6099,38408.5224,0.0760,0.9860,0.1520,192.0000,0.0000,0.0000,0.0000,0.0000,0.0000,0.0000,0.0000,0.0000,0.0000,1623894918.214500,2021-06-16 18:55:18.214499
202.000,66038.9219,53605.5629,-23461.6650,47230.7112,36489.0217,52524.7443,17214.0172,-19476.4160,25392.1181,-674.7098,29541.7866,22275.4803,27326.2146,17715.4339,24567.2047,38392.8091,0.0760,0.9860,0.1520,192.0000,0.0000,0.0000,0.0000,0.0000,0.0000,0.0000,0.0000,0.0000,0.0000,1623894918.221000,2021-06-16 18:55:18.220999
204.000,66006.7577,53542.3521,-23421.4095,47217.0320,36708.3593,52474.2740,17406.9127,-19394.1840,25357.9423,-624.8877,29514.3386,22305.6775,27125.3618,17774.2413,24530.3690,38392.3621,0.0760,0.9860,0.1520,192.0000,0.0000,0.0000,0.0000,0.0000,0.0000,0.0000,0.0000,0.0000,0.0000,1623894918.227500,2021-06-16 18:55:18.227499
206.000,66064.1347,53626.5512,-23433.1219,47237.5956,36507.8195,52465.9368,17218.7110,-19493.5151,25405.2610,-678.3307,29558.1927,22278.6319,27333.7248,17680.4087,24572.0997,38398.0171,0.0700,0.9800,0.1480,192.0000,1.0000,24.0000,15.0000,80.0000,2.0000,80.0000,0.0000,0.0000,0.0000,1623894918.234000,2021-06-16 18:55:18.233999
208.000,66005.9531,53538.2394,-23420.8507,47222.9328,36693.8754,52472.0165,17380.5377,-19393.8487,25367.0618,-601.3290,29528.5320,22324.6765,27094.4494,17780.0751,24521.6295,38388.5847,0.0700,0.9800,0.1480,192.0000,0.0000,0.0000,0.0000,0.0000,0.0000,0.0000,0.0000,0.0000,0.0000,1623894918.241290,2021-06-16 18:55:18.241285
210.000,66060.0666,53619.6892,-23448.1869,47230.1078,36539.9166,52469.9601,17280.9383,-19443.1119,25392.2523,-714.3394,29565.9711,22262.5386,27366.2913,17678.8888,24571.5409,38412.7692,0.0700,0.9800,0.1480,192.0000,0.0000,0.0000,0.0000,0.0000,0.0000,0.0000,0.0000,0.0000,0.0000,1623894918.248570,2021-06-16 18:55:18.248571
212.000,66015.8996,53555.4279,-23414.3240,47225.8833,36660.7501,52485.9193,17331.6544,-19405.7845,25365.1396,-581.7489,29527.8614,22338.1769,27077.9985,17794.4696,24502.3175,38382.2368,0.0700,0.9800,0.1480,192.0000,0.0000,0.0000,0.0000,0.0000,0.0000,0.0000,0.0000,0.0000,0.0000,1623894918.255860,2021-06-16 18:55:18.255857
214.000,66050.4107,53610.5473,-23438.1510,47225.0786,36571.4102,52471.4130,17313.5271,-19429.3880,25384.4515,-727.1470,29560.6514,22256.8613,27373.6897,17668.7858,24568.7916,38415.0268,0.0700,0.9800,0.1480,192.0000,0.0000,0.0000,0.0000,0.0000,0.0000,0.0000,0.0000,0.0000,0.0000,1623894918.263140,2021-06-16 18:55:18.263142
216.000,66008.4565,53550.9576,-23416.7380,47223.5140,36625.0320,52524.8560,17303.3795,-19401.8283,25361.1386,-571.1318,29526.6097,22336.6123,27077.9761,17804.4832,24499.9036,38377.0288,0.0680,0.9780,0.1400,192.0000,1.0000,16.0000,15.0000,72.0000,2.0000,48.0000,0.0000,0.0000,0.0000,1623894918.270430,2021-06-16 18:55:18.270428
218.000,66044.6663,53600.6902,-23440.3415,47212.6734,36604.8931,52477.2021,17359.1247,-19399.0567,25382.2610,-741.0944,29559.0645,22244.5008,27378.3836,17673.4126,24575.8101,38417.5972,0.0680,0.9780,0.1400,192.0000,0.0000,0.0000,0.0000,0.0000,0.0000,0.0000,0.0000,0.0000,0.0000,1623894918.277710,2021-06-16 18:55:18.277714
220.000,66016.7043,53559.3618,-23426.4834,47216.6967,36588.1740,52538.4459,17260.2406,-19404.5775,25372.1357,-569.2989,29520.3065,22332.2090,27075.7633,17802.5610,24487.5207,38362.5672,0.0680,0.9780,0.1400,192.0000,0.0000,0.0000,0.0000,0.0000,0.0000,0.0000,0.0000,0.0000,0.0000,1623894918.285000,2021-06-16 18:55:18.285000
222.000,66028.8860,53587.6144,-23439.7380,47203.0845,36617.1419,52419.2664,17347.0771,-19416.4910,25364.8937,-754.4608,29536.0645,22229.5251,27335.6917,17652.0890,24555.8947,38401.7945,0.0680,0.9780,0.1400,192.0000,0.0000,0.0000,0.0000,0.0000,0.0000,0.0000,0.0000,0.0000,0.0000,1623894918.291380,2021-06-16 18:55:18.291375
224.000,66030.4282,53583.3452,-23409.2949,47244.8376,36565.4199,52552.1475,17222.3767,-19415.2840,25371.9569,-558.0784,29523.3911,22335.6288,27075.2492,17794.8273,24488.1689,38362.8131,0.0680,0.9780,0.1400,192.0000,0.0000,0.0000,0.0000,0.0000,0.0000,0.0000,0.0000,0.0000,0.0000,1623894918.297750,2021-06-16 18:55:18.297749
226.000,66040.3971,53590.1625,-23418.7720,47218.4178,36668.0144,52441.0370,17399.4249,-19380.7282,25381.1211,-733.4948,29558.9974,22251.7428,27342.7549,17679.8499,24570.2669,38428.4378,0.0700,0.9780,0.1440,192.0000,1.0000,24.0000,15.0000,72.0000,2.0000,64.0000,0.0000,0.0000,0.0000,1623894918.304130,2021-06-16 18:55:18.304125
228.000,66031.9258,53583.4347,-23404.7351,47236.8356,36527.6455,52522.1515,17172.6441,-19442.1285,25386.7314,-561.4982,29543.0830,22341.2838,27104.7312,17787.4959,24498.3613,38367.6411,0.0700,0.9780,0.1440,192.0000,0.0000,0.0000,0.0000,0.0000,0.0000,0.0000,0.0000,0.0000,0.0000,1623894918.310500,2021-06-16 18:55:18.310500
230.000,66031.6352,53575.2539,-23419.3085,47210.5500,36693.1378,52407.7776,17407.9856,-19382.4493,25367.4642,-740.2004,29553.0518,22245.0372,27299.5490,17673.0103,24558.7110,38416.9267,0.0700,0.9780,0.1440,192.0000,0.0000,0.0000,0.0000,0.0000,0.0000,0.0000,0.0000,0.0000,0.0000,1623894918.316870,2021-06-16 18:55:18.316874
232.000,66044.7334,53596.6222,-23409.9878,47239.2049,36504.3997,52498.9504,17137.6413,-19465.5531,25386.6420,-575.8703,29549.0509,22330.2644,27118.7904,17760.2491,24497.9366,38364.9142,0.0700,0.9780,0.1440,192.0000,0.0000,0.0000,0.0000,0.0000,0.0000,0.0000,0.0000,0.0000,0.0000,1623894918.323250,2021-06-16 18:55:18.323250
234.000,66029.7353,53563.9886,-23425.2317,47204.0680,36720.6528,52400.6474,17434.4277,-19361.0587,25355.5730,-740.8933,29551.0849,22249.3735,27267.1613,17690.7799,24548.6080,38419.0948,0.0700,0.9780,0.1440,192.0000,0.0000,0.0000,0.0000,0.0000,0.0000,0.0000,0.0000,0.0000,0.0000,1623894918.329620,2021-06-16 18:55:18.329624
236.000,66085.8159,53641.0351,-23379.7459,47249.7326,36482.5844,52450.2012,17091.1943,-19509.7201,25394.2192,-585.3251,29563.1325,22336.2100,27151.2898,17744.9829,24515.2145,38374.5701,0.0660,0.9760,0.1440,192.0000,1.0000,8.0000,15.0000,64.0000,2.0000,64.0000,0.0000,0.0000,0.0000,1623894918.336000,2021-06-16 18:55:18.335999
238.000,66034.4739,53568.2578,-23406.5456,47216.3838,36737.3719,52381.9166,17426.5376,-19368.6136,25360.0434,-696.8380,29558.5727,22284.5775,27212.6454,17700.7264,24553.7713,38419.2960,0.0660,0.9760,0.1440,192.0000,0.0000,0.0000,0.0000,0.0000,0.0000,0.0000,0.0000,0.0000,0.0000,1623894918.343430,2021-06-16 18:55:18.343428
240.000,66089.3027,53646.4666,-23382.4281,47256.9075,36475.7000,52438.3324,17099.4868,-19502.1206,25396.5661,-590.0861,29578.1305,22337.4170,27192.9535,17741.3619,24532.8947,38385.2095,0.0660,0.9760,0.1440,192.0000,0.0000,0.0000,0.0000,0.0000,0.0000,0.0000,0.0000,0.0000,0.0000,1623894918.350860,2021-06-16 18:55:18.350857
242.000,66047.1250,53580.3725,-23382.5622,47225.8386,36739.9423,52364.4599,17396.4074,-19394.7204,25354.7237,-664.7409,29562.1266,22299.3296,27168.1878,17723.3464,24553.2795,38415.6079,0.0660,0.9760,0.1440,192.0000,0.0000,0.0000,0.0000,0.0000,0.0000,0.0000,0.0000,0.0000,0.0000,1623894918.358290,2021-06-16 18:55:18.358285
244.000,66089.9286,53649.3052,-23396.1074,47245.8210,36471.7885,52422.3062,17090.3003,-19520.2702,25402.5341,-605.2182,29582.9138,22326.5540,27214.9700,17722.4970,24552.5643,38389.3446,0.0660,0.9760,0.1440,192.0000,0.0000,0.0000,0.0000,0.0000,0.0000,0.0000,0.0000,0.0000,0.0000,1623894918.365710,2021-06-16 18:55:18.365714
246.000,66031.1658,53563.0946,-23405.8751,47210.1253,36722.6197,52374.4288,17372.6475,-19399.7272,25349.4040,-640.3998,29550.8390,22305.0740,27121.7855,17744.8488,24541.3660,38400.1629,0.0650,0.9740,0.1380,192.0000,1.0000,0.0000,15.0000,48.0000,2.0000,16.0000,0.0000,0.0000,0.0000,1623894918.373140,2021-06-16 18:55:18.373142
248.000,66096.3659,53656.9719,-23398.4543,47247.4974,36470.9838,52405.6989,17088.7580,-19532.4072,25381.9928,-634.6554,29567.6028,22299.6872,27209.6279,17685.2814,24556.3864,38369.8092,0.0650,0.9740,0.1380,192.0000,0.0000,0.0000,0.0000,0.0000,0.0000,0.0000,0.0000,0.0000,0.0000,1623894918.380570,2021-06-16 18:55:18.380571
250.000,66020.8617,53555.2044,-23414.0782,47217.8813,36714.8190,52422.3286,17364.6009,-19386.9420,25360.7363,-602.2007,29559.5785,22330.2868,27107.6145,17782.5785,24550.0832,38407.2484,0.0650,0.9740,0.1380,192.0000,0.0000,0.0000,0.0000,0.0000,0.0000,0.0000,0.0000,0.0000,0.0000,1623894918.388000,2021-06-16 18:55:18.388000
252.000,66084.0277,53645.2819,-23419.1967,47232.1194,36480.3268,52413.9467,17129.1253,-19507.5073,25377.9918,-667.6243,29563.8924,22277.6931,27252.7221,17681.1016,24561.2367,38378.6605,0.0650,0.9740,0.1380,192.0000,0.0000,0.0000,0.0000,0.0000,0.0000,0.0000,0.0000,0.0000,0.0000,1623894918.394380,2021-06-16 18:55:18.394375
254.000,66014.8938,53546.6437,-23425.4999,47216.9649,36697.6752,52462.6735,17351.8604,-19367.7642,25358.9258,-598.4680,29548.8050,22323.3801,27079.4960,17796.2131,24533.0288,38398.5312,0.0650,0.9740,0.1380,192.0000,0.0000,0.0000,0.0000,0.0000,0.0000,0.0000,0.0000,0.0000,0.0000,1623894918.400750,2021-06-16 18:55:18.400749
0.000,66084.8547,53640.7892,-23422.8848,47223.7822,36510.3229,52435.6502,17177.6062,-19470.5152,25385.4573,-689.5066,29574.6883,22268.1489,27308.8026,17688.1424,24590.4281,38404.0968,0.0665,0.9730,0.1360,192.0000,1.0000,16.0000,15.0000,48.0000,2.0000,24.0000,0.0000,0.0000,0.0000,1623894918.407120,2021-06-16 18:55:18.407124
2.000,66011.7869,53543.2015,-23412.9159,47211.2652,36663.2759,52473.8046,17296.8080,-19384.8633,25346.1406,-594.6682,29533.0470,22321.1002,27032.7809,17788.9264,24571.2280,38378.4817,0.0665,0.9730,0.1360,192.0000,0.0000,0.0000,0.0000,0.0000,0.0000,0.0000,0.0000,0.0000,0.0000,1623894918.413500,2021-06-16 18:55:18.413499
4.000,66073.4106,53633.1226,-23422.8400,47218.2166,36537.6144,52433.8397,17209.9939,-19447.4258,25377.5001,-716.8204,29570.8215,22250.8263,27319.9785,17681.1686,24667.3181,38410.2435,0.0665,0.9730,0.1360,192.0000,0.0000,0.0000,0.0000,0.0000,0.0000,0.0000,0.0000,0.0000,0.0000,1623894918.419870,2021-06-16 18:55:18.419874
6.000,66034.5857,53576.1033,-23390.1618,47222.3517,36625.6579,52458.2255,17209.3233,-19425.8117,25352.6673,-571.8470,29534.4105,22331.7173,27004.0589,17788.2335,24612.3999,38370.0774,0.0665,0.9730,0.1360,192.0000,0.0000,0.0000,0.0000,0.0000,0.0000,0.0000,0.0000,0.0000,0.0000,1623894918.426250,2021-06-16 18:55:18.426249
8.000,66073.7683,53632.5191,-23414.0782,47219.7812,36580.0827,52404.3131,17218.9346,-19445.2130,25384.6974,-725.0906,29576.1859,22252.4357,27310.7695,17664.8742,24702.6115,38417.2172,0.0665,0.9730,0.1360,192.0000,0.0000,0.0000,0.0000,0.0000,0.0000,0.0000,0.0000,0.0000,0.0000,1623894918.432620,2021-06-16 18:55:18.432624
10.000,66035.7256,53580.7301,-23388.9101,47231.3818,36601.2274,52458.4714,17160.6859,-19436.2723,25362.7703,-556.1114,29539.4620,22336.0982,27005.7576,17793.2850,24636.7409,38371.9773,0.0663,0.9775,0.1340,192.0000,1.0000,8.0000,15.0000,88.0000,2.0000,16.0000,0.0000,0.0000,0.0000,1623894918.439000,2021-06-16 18:55:18.438999
12.000,66062.3689,53619.8233,-23413.8099,47218.8201,36622.2604,52389.0692,17247.1425,-19430.3044,25379.0647,-721.3578,29570.5309,22251.1393,27300.6889,17670.1269,24720.8282,38422.9393,0.0663,0.9775,0.1340,192.0000,0.0000,0.0000,0.0000,0.0000,0.0000,0.0000,0.0000,0.0000,0.0000,1623894918.498290,2021-06-16 18:55:18.498285
14.000,66054.7916,53606.2558,-23376.5943,47235.6063,36567.3198,52447.9213,17090.1885,-19475.0526,25367.2407,-551.1046,29538.7467,22341.3956,27010.8091,17787.4959,24640.4066,38367.2611,0.0663,0.9775,0.1340,192.0000,0.0000,0.0000,0.0000,0.0000,0.0000,0.0000,0.0000,0.0000,0.0000,1623894918.505570,2021-06-16 18:55:18.505571
16.000,66041.4923,53599.7067,-23430.0373,47210.1029,36656.3692,52400.3792,17291.5777,-19398.7661,25367.1736,-723.6824,29567.8934,22256.2131,27286.4732,17672.4515,24719.4871,38423.1628,0.0663,0.9775,0.1340,192.0000,0.0000,0.0000,0.0000,0.0000,0.0000,0.0000,0.0000,0.0000,0.0000,1623894918.512860,2021-06-16 18:55:18.512857
18.000,66039.3242,53594.9905,-23404.1316,47231.1136,36543.1576,52487.4616,17091.2837,-19445.1907,25367.6206,-553.8539,29539.7525,22337.9981,27040.2017,17784.9254,24639.0432,38366.6800,0.0663,0.9775,0.1340,192.0000,0.0000,0.0000,0.0000,0.0000,0.0000,0.0000,0.0000,0.0000,0.0000,1623894918.520140,2021-06-16 18:55:18.520142
20.000,66041.6488,53591.9954,-23418.8391,47196.7589,36667.0533,52371.5231,17301.8819,-19391.9041,25351.7509,-736.8029,29554.8400,22238.8905,27275.1632,17681.9733,24709.3171,38421.9782,0.0701,0.9858,0.1320,192.0000,1.0000,40.0000,15.5000,8.0000,2.0000,8.0000,0.0000,0.0000,0.0000,1623894918.527430,2021-06-16 18:55:18.527428
22.000,66061.6536,53619.6668,-23381.1093,47253.0406,36521.5658,52497.4528,17066.5851,-19452.6114,25376.8966,-559.5536,29550.7273,22335.9865,27054.5515,17759.3103,24648.4085,38356.9569,0.0701,0.9858,0.1320,192.0000,0.0000,0.0000,0.0000,0.0000,0.0000,0.0000,0.0000,0.0000,0.0000,1623894918.534710,2021-06-16 18:55:18.534714
24.000,66030.3612,53581.8477,-23419.0179,47210.9076,36714.8860,52426.2401,17358.1189,-19342.6409,25367.0171,-709.5114,29574.5319,22265.7349,27273.5092,17711.4776,24711.6416,38439.7702,0.0701,0.9858,0.1320,192.0000,0.0000,0.0000,0.0000,0.0000,0.0000,0.0000,0.0000,0.0000,0.0000,1623894918.542000,2021-06-16 18:55:18.542000
26.000,66054.4564,53619.6221,-23398.3872,47234.2652,36495.6825,52505.3877,17063.0088,-19443.7825,25378.3942,-573.7693,29563.5125,22331.5161,27130.7262,17775.7165,24656.7010,38384.1367,0.0701,0.9858,0.1320,192.0000,0.0000,0.0000,0.0000,0.0000,0.0000,0.0000,0.0000,0.0000,0.0000,1623894918.548500,2021-06-16 18:55:18.548500
28.000,66035.3903,53583.1441,-23409.4290,47201.2517,36731.5604,52420.6969,17360.6893,-19339.1093,25356.2883,-700.7048,29565.3900,22269.0206,27228.4034,17715.5009,24706.6125,38426.3815,0.0701,0.9858,0.1320,192.0000,0.0000,0.0000,0.0000,0.0000,0.0000,0.0000,0.0000,0.0000,0.0000,1623894918.555000,2021-06-16 18:55:18.555000
30.000,66083.4242,53648.1653,-23396.0403,47229.4596,36472.3920,52465.1992,17021.1440,-19480.8417,25392.6322,-576.9656,29579.4045,22329.1692,27160.9905,17749.5873,24677.0188,38376.8500,0.0711,0.9879,0.1340,192.0000,1.0000,32.0000,15.0000,120.0000,2.0000,32.0000,0.0000,0.0000,0.0000,1623894918.561500,2021-06-16 18:55:18.561500
32.000,66033.0210,53573.9128,-23412.8488,47200.8270,36737.2154,52408.2917,17349.2005,-19345.1666,25359.9093,-673.6145,29570.0839,22283.1917,27178.8048,17721.5359,24700.9128,38408.9024,0.0711,0.9879,0.1340,192.0000,0.0000,0.0000,0.0000,0.0000,0.0000,0.0000,0.0000,0.0000,0.0000,1623894918.568000,2021-06-16 18:55:18.568000
34.000,66090.1074,53656.7260,-23407.9538,47228.4984,36462.3784,52443.8310,17023.6921,-19484.3509,25388.8324,-606.4922,29584.3443,22314.1041,27203.3918,17740.6913,24679.9692,38380.0239,0.0711,0.9879,0.1340,192.0000,0.0000,0.0000,0.0000,0.0000,0.0000,0.0000,0.0000,0.0000,0.0000,1623894918.574500,2021-06-16 18:55:18.574500
36.000,66049.4943,53589.9614,-23398.2531,47207.0855,36726.2631,52385.0906,17302.8207,-19381.1306,25355.1484,-650.4581,29566.1053,22294.3675,27122.5455,17729.7613,24680.7739,38393.3456,0.0711,0.9879,0.1340,192.0000,0.0000,0.0000,0.0000,0.0000,0.0000,0.0000,0.0000,0.0000,0.0000,1623894918.581000,2021-06-16 18:55:18.581000
38.000,66093.4602,53662.5151,-23414.3240,47227.7832,36460.9479,52428.5200,17023.8485,-19497.5608,25392.4311,-618.4281,29593.5532,22310.3043,27217.9874,17714.1822,24688.1723,38380.8733,0.0711,0.9879,0.1340,192.0000,0.0000,0.0000,0.0000,0.0000,0.0000,0.0000,0.0000,0.0000,0.0000,1623894918.587500,2021-06-16 18:55:18.587500
40.000,66040.9783,53587.7932,-23405.9421,47208.2701,36712.2709,52404.2684,17285.2298,-19389.3784,25344.8666,-632.7108,29561.0985,22309.9467,27083.7876,17747.6204,24671.7885,38389.0540,0.0755,0.9869,0.1280,192.0000,1.0000,64.0000,15.0000,104.0000,1.5000,104.0000,0.0000,0.0000,0.0000,1623894918.594000,2021-06-16 18:55:18.594000
42.000,66096.9247,53670.9417,-23413.8994,47225.3468,36469.6203,52401.6309,17029.0118,-19517.0292,25387.8490,-643.7749,29595.2743,22305.5881,27241.4568,17690.5564,24703.2150,38387.4671,0.0755,0.9869,0.1280,192.0000,0.0000,0.0000,0.0000,0.0000,0.0000,0.0000,0.0000,0.0000,0.0000,1623894918.601430,2021-06-16 18:55:18.601428
44.000,66039.2348,53586.0945,-23393.8051,47206.8619,36689.1145,52371.3666,17223.8519,-19427.8010,25340.6644,-611.1190,29557.8128,22323.0448,27033.3844,17750.5708,24662.8478,38381.1415,0.0755,0.9869,0.1280,192.0000,0.0000,0.0000,0.0000,0.0000,0.0000,0.0000,0.0000,0.0000,0.0000,1623894918.608860,2021-06-16 18:55:18.608857
46.000,66086.5982,53662.6269,-23408.8926,47218.7307,36484.7078,52327.4454,17024.6979,-19539.7162,25365.3631,-684.6339,29581.4833,22274.9662,27220.2450,17646.8587,24699.9964,38376.1124,0.0755,0.9869,0.1280,192.0000,0.0000,0.0000,0.0000,0.0000,0.0000,0.0000,0.0000,0.0000,0.0000,1623894918.616290,2021-06-16 18:55:18.616285
48.000,66035.9715,53589.8943,-23384.6409,47225.7492,36680.8667,52379.8603,17201.2990,-19429.9915,25345.1348,-587.8956,29562.7525,22337.1264,27021.4933,17776.7670,24659.1150,38393.3679,0.0755,0.9869,0.1280,192.0000,0.0000,0.0000,0.0000,0.0000,0.0000,0.0000,0.0000,0.0000,0.0000,1623894918.623710,2021-06-16 18:55:18.623714
50.000,66094.7342,53667.2760,-23391.9276,47226.1068,36515.0391,52308.0441,17049.7542,-19543.0242,25369.3641,-693.0605,29583.4726,22274.1392,27241.5462,17645.4505,24712.9380,38396.1843,0.0748,0.9905,0.1260,192.0000,1.0000,40.0000,15.5000,8.0000,1.5000,112.0000,0.0000,0.0000,0.0000,1623894918.631140,2021-06-16 18:55:18.631142
52.000,66043.2805,53595.7281,-23374.5603,47232.7900,36657.0844,52393.7407,17151.6558,-19459.1829,25352.1979,-565.2756,29563.9595,22353.3538,26998.7168,17783.2491,24663.0042,38387.8023,0.0748,0.9905,0.1260,192.0000,0.0000,0.0000,0.0000,0.0000,0.0000,0.0000,0.0000,0.0000,0.0000,1623894918.638570,2021-06-16 18:55:18.638571
54.000,66088.2522,53658.9165,-23394.2745,47225.2574,36562.7601,52343.0022,17116.8094,-19513.0059,25370.7722,-708.9303,29593.7320,22274.2286,27293.0893,17665.3883,24736.4297,38419.4971,0.0748,0.9905,0.1260,192.0000,0.0000,0.0000,0.0000,0.0000,0.0000,0.0000,0.0000,0.0000,0.0000,1623894918.646000,2021-06-16 18:55:18.645999
56.000,66053.0929,53612.8943,-23360.1434,47234.2875,36616.7842,52383.1907,17079.7055,-19517.0739,25358.2553,-555.5079,29554.6165,22356.9971,26983.3388,17770.9332,24664.0995,38369.1833,0.0748,0.9905,0.1260,192.0000,0.0000,0.0000,0.0000,0.0000,0.0000,0.0000,0.0000,0.0000,0.0000,1623894918.652500,2021-06-16 18:55:18.652499
58.000,66071.1308,53643.6503,-23410.2784,47220.3624,36608.3576,52344.6116,17166.6762,-19499.6619,25373.8791,-721.8943,29581.1256,22272.0828,27298.3420,17661.9685,24739.7825,38421.5535,0.0748,0.9905,0.1260,192.0000,0.0000,0.0000,0.0000,0.0000,0.0000,0.0000,0.0000,0.0000,0.0000,1623894918.659000,2021-06-16 18:55:18.658999
60.000,66057.6303,53621.9244,-23369.7994,47234.2428,36584.0613,52388.4880,17043.6522,-19538.9562,25351.4156,-550.7693,29537.0256,22357.8465,26996.8169,17773.8166,24653.6389,38366.0988,0.0764,0.9892,0.1220,192.0000,1.0000,56.0000,15.0000,112.0000,1.5000,88.0000,0.0000,0.0000,0.0000,1623894918.665500,2021-06-16 18:55:18.665499
62.000,66068.7168,53633.3461,-23404.2434,47212.3381,36645.7297,52327.1102,17196.1805,-19497.1585,25363.9549,-720.3073,29565.5465,22274.2510,27292.9328,17664.2260,24731.8476,38425.5991,0.0764,0.9892,0.1220,192.0000,0.0000,0.0000,0.0000,0.0000,0.0000,0.0000,0.0000,0.0000,0.0000,1623894918.672000,2021-06-16 18:55:18.671999
64.000,66064.9617,53623.6454,-23371.0734,47232.7229,36557.9991,52385.4035,17003.8214,-19561.4868,25358.2329,-556.2902,29532.5329,22357.2877,27018.0734,17771.9167,24657.6845,38365.8306,0.0764,0.9892,0.1220,192.0000,0.0000,0.0000,0.0000,0.0000,0.0000,0.0000,0.0000,0.0000,0.0000,1623894918.678500,2021-06-16 18:55:18.678499
66.000,66073.1648,53629.8816,-23391.7264,47211.8017,36679.2350,52302.3891,17207.2446,-19514.0340,25363.1056,-727.7057,29554.4823,22270.4735,27276.0573,17672.6526,24732.8311,38430.0248,0.0764,0.9892,0.1220,192.0000,0.0000,0.0000,0.0000,0.0000,0.0000,0.0000,0.0000,0.0000,0.0000,1623894918.685000,2021-06-16 18:55:18.684999
68.000,66061.4972,53623.6454,-23374.0462,47229.3478,36535.1557,52376.7534,16972.8866,-19587.9736,25369.6993,-556.0891,29531.2365,22350.9174,27037.6312,17755.0412,24667.2064,38366.5011,0.0764,0.9892,0.1220,192.0000,0.0000,0.0000,0.0000,0.0000,0.0000,0.0000,0.0000,0.0000,0.0000,1623894918.691500,2021-06-16 18:55:18.691499
70.000,66049.7848,53601.6066,-23401.9412,47198.8377,36710.1922,52296.6894,17245.7567,-19493.6939,25348.3087,-725.4929,29533.9187,22259.9458,27249.3022,17677.9276,24726.7291,38424.7945,0.0722,0.9836,0.1170,192.0000,1.0000,16.0000,15.0000,72.0000,1.5000,64.0000,0.0000,0.0000,0.0000,1623894918.698000,2021-06-16 18:55:18.697999
72.000,66071.0414,53636.5647,-23378.4718,47231.1583,36504.4220,52367.6339,16958.7603,-19597.1602,25364.8043,-573.3893,29523.4134,22335.0477,27079.2055,17752.0907,24667.6311,38367.5964,0.0722,0.9836,0.1170,192.0000,0.0000,0.0000,0.0000,0.0000,0.0000,0.0000,0.0000,0.0000,0.0000,1623894918.705430,2021-06-16 18:55:18.705428
74.000,66041.5818,53592.4201,-23406.6350,47192.4004,36712.5391,52275.7235,17247.4330,-19503.2828,25334.9424,-709.5561,29524.3075,22266.3831,27211.3937,17690.1987,24721.2305,38419.9665,0.0722,0.9836,0.1170,192.0000,0.0000,0.0000,0.0000,0.0000,0.0000,0.0000,0.0000,0.0000,0.0000,1623894918.712860,2021-06-16 18:55:18.712857
76.000,66080.0715,53640.2975,-23373.7780,47237.1262,36495.1684,52372.9536,16958.0003,-19607.1291,25358.9035,-591.8742,29518.0490,22320.3626,27091.9460,17725.1792,24675.5436,38360.5779,0.0722,0.9836,0.1170,192.0000,0.0000,0.0000,0.0000,0.0000,0.0000,0.0000,0.0000,0.0000,0.0000,1623894918.720290,2021-06-16 18:55:18.720285
78.000,66037.8937,53572.7952,-23398.1637,47196.4237,36742.1999,52327.8925,17298.5515,-19467.7659,25346.3641,-695.4969,29527.7720,22272.8651,27202.3412,17719.3901,24717.2519,38424.0792,0.0722,0.9836,0.1170,192.0000,0.0000,0.0000,0.0000,0.0000,0.0000,0.0000,0.0000,0.0000,0.0000,1623894918.727710,2021-06-16 18:55:18.727714
80.000,66084.6312,53644.9914,-23373.3756,47226.5985,36474.6718,52369.2655,16965.5328,-19610.4595,25370.6158,-609.0627,29535.2151,22310.1702,27174.8933,17734.3211,24692.4862,38387.2212,0.0722,0.9836,0.1170,192.0000,0.0000,0.0000,0.0000,0.0000,0.0000,0.0000,0.0000,0.0000,0.0000,1623894918.735140,2021-06-16 18:55:18.735142
82.000,66021.2640,53559.9877,-23401.5612,47193.8532,36743.2728,52345.7068,17302.2619,-19454.0420,25322.2242,-684.8127,29514.9868,22274.5862,27148.3618,17724.7545,24705.0479,38415.7867,0.0580,0.9860,0.1100,192.0000,0.5000,104.0000,15.0000,104.0000,1.5000,56.0000,0.0000,0.0000,0.0000,1623894918.742570,2021-06-16 18:55:18.742571
84.000,66100.5233,53664.7056,-23367.5418,47225.7939,36467.2734,52349.3948,16959.1179,-19617.7908,25365.8548,-627.6370,29542.8371,22305.2528,27215.1711,17717.1326,24700.8904,38393.9938,0.0580,0.9860,0.1100,192.0000,0.0000,0.0000,0.0000,0.0000,0.0000,0.0000,0.0000,0.0000,0.0000,1623894918.750000,2021-06-16 18:55:18.750000
86.000,66050.2542,53589.1343,-23362.8033,47206.6384,36726.0619,52313.8556,17230.5575,-19503.7075,25330.1815,-646.9936,29520.5077,22306.7057,27103.5242,17729.3814,24692.7321,38400.5652,0.0580,0.9860,0.1100,192.0000,0.0000,0.0000,0.0000,0.0000,0.0000,0.0000,0.0000,0.0000,0.0000,1623894918.801000,2021-06-16 18:55:18.801000
88.000,66102.1326,53666.8290,-23382.0928,47223.1787,36475.5212,52333.2569,16966.2257,-19618.1485,25371.2863,-646.0548,29552.5377,22302.9282,27243.6472,17694.8032,24716.5367,38394.6867,0.0580,0.9860,0.1100,192.0000,0.0000,0.0000,0.0000,0.0000,0.0000,0.0000,0.0000,0.0000,0.0000,1623894918.808430,2021-06-16 18:55:18.808428
90.000,66042.6323,53577.7126,-23386.4067,47199.6200,36713.7014,52335.1344,17206.5517,-19501.2935,25325.2864,-638.0082,29514.3610,22308.3374,27072.0753,17747.2851,24691.5698,38392.0715,0.0580,0.9860,0.1100,192.0000,0.0000,0.0000,0.0000,0.0000,0.0000,0.0000,0.0000,0.0000,0.0000,1623894918.815860,2021-06-16 18:55:18.815857
92.000,66107.3629,53668.3936,-23401.9859,47209.0301,36486.0936,52322.9527,16976.5075,-19626.3068,25364.3349,-678.4201,29547.9333,22283.0575,27272.1904,17679.8052,24734.1722,38401.0793,0.0580,0.9740,0.1060,192.0000,0.5000,104.0000,15.0000,56.0000,1.5000,40.0000,0.0000,0.0000,0.0000,1623894918.823290,2021-06-16 18:55:18.823285
94.000,66049.7178,53586.6757,-23382.0034,47200.9611,36690.9473,52343.9187,17152.2370,-19531.4237,25323.6771,-611.7672,29510.0918,22320.6532,27034.6584,17749.6544,24685.9818,38387.8247,0.0580,0.9740,0.1060,192.0000,0.0000,0.0000,0.0000,0.0000,0.0000,0.0000,0.0000,0.0000,0.0000,1623894918.830710,2021-06-16 18:55:18.830714
96.000,66109.6428,53670.1147,-23403.6175,47206.9066,36512.2898,52319.0188,17002.9497,-19618.4167,25370.9063,-693.9323,29554.1694,22276.8214,27296.0174,17668.3164,24738.7767,38411.0482,0.0580,0.9740,0.1060,192.0000,0.0000,0.0000,0.0000,0.0000,0.0000,0.0000,0.0000,0.0000,0.0000,1623894918.838140,2021-06-16 18:55:18.838142
98.000,66055.3728,53596.6892,-23384.5292,47202.7269,36659.7890,52340.0965,17094.7930,-19561.5538,25333.8248,-589.4826,29517.8702,22334.0866,27013.3349,17761.9925,24682.7408,38378.0346,0.0580,0.9740,0.1060,192.0000,0.0000,0.0000,0.0000,0.0000,0.0000,0.0000,0.0000,0.0000,0.0000,1623894918.845570,2021-06-16 18:55:18.845571
100.000,66112.2803,53667.4325,-23398.5661,47192.9144,36529.9701,52255.0928,16995.8194,-19647.4963,25350.6557,-718.2957,29541.6524,22258.5153,27272.6375,17641.1367,24740.1401,38391.6916,0.0580,0.9740,0.1060,192.0000,0.0000,0.0000,0.0000,0.0000,0.0000,0.0000,0.0000,0.0000,0.0000,1623894918.853000,2021-06-16 18:55:18.852999
102.000,66075.6235,53612.4696,-23366.3572,47211.5111,36641.0806,52340.1412,17037.2149,-19590.6335,25344.4642,-568.8742,29524.5534,22346.5141,27007.6128,17767.4017,24677.4658,38370.5915,0.0560,0.9800,0.1180,192.0000,0.5000,96.0000,15.0000,80.0000,1.5000,88.0000,0.0000,0.0000,0.0000,1623894918.861670,2021-06-16 18:55:18.861666
106.000,66075.1541,53619.2421,-23371.8334,47218.3507,36609.3634,52343.9410,16984.8671,-19620.4954,25343.7937,-552.8928,29527.9732,22353.1973,27002.9413,17768.9886,24677.8905,38367.3729,0.0560,0.9800,0.1180,192.0000,0.0000,0.0000,0.0000,0.0000,0.0000,0.0000,0.0000,0.0000,0.0000,1623894918.870330,2021-06-16 18:55:18.870333
108.000,66101.7750,53656.2119,-23392.2405,47198.0777,36618.5947,52265.4193,17071.6813,-19623.2000,25363.7985,-711.8807,29563.8924,22272.7310,27311.2389,17665.3660,24748.9020,38421.5982,0.0560,0.9800,0.1180,192.0000,0.0000,0.0000,0.0000,0.0000,0.0000,0.0000,0.0000,0.0000,0.0000,1623894918.879000,2021-06-16 18:55:18.878999
110.000,66057.6750,53608.0439,-23390.3406,47201.2069,36559.6085,52348.5455,16945.7962,-19638.7791,25338.0046,-561.9452,29518.1608,22342.3344,27009.7139,17770.3744,24667.4746,38356.3981,0.0560,0.9800,0.1180,192.0000,0.0000,0.0000,0.0000,0.0000,0.0000,0.0000,0.0000,0.0000,0.0000,1623894918.887670,2021-06-16 18:55:18.887666
112.000,66093.8178,53640.0516,-23392.2629,47183.2808,36640.1418,52257.1939,17095.8882,-19621.9483,25343.4584,-732.5784,29541.8983,22250.1558,27280.3935,17661.7673,24748.3208,38410.7352,0.0520,0.9740,0.1180,192.0000,0.5000,80.0000,15.0000,56.0000,1.5000,88.0000,0.0000,0.0000,0.0000,1623894918.896330,2021-06-16 18:55:18.896333
114.000,66088.1851,53636.5647,-23373.9791,47203.4645,36521.3646,52335.6932,16881.4903,-19683.3709,25342.4526,-562.2581,29520.8653,22336.2770,27017.9617,17754.0353,24674.3142,38342.7636,0.0520,0.9740,0.1180,192.0000,0.0000,0.0000,0.0000,0.0000,0.0000,0.0000,0.0000,0.0000,0.0000,1623894918.905000,2021-06-16 18:55:18.904999
116.000,66088.6545,53628.7863,-23398.4319,47177.2682,36676.3963,52256.9257,17117.2341,-19612.6723,25344.3301,-725.6494,29541.8536,22256.2355,27256.6113,17668.7634,24749.3937,38406.8237,0.0520,0.9740,0.1180,192.0000,0.0000,0.0000,0.0000,0.0000,0.0000,0.0000,0.0000,0.0000,0.0000,1623894918.911500,2021-06-16 18:55:18.911499
118.000,66104.8595,53649.5511,-23371.7887,47205.5208,36497.6271,52325.7243,16846.8451,-19709.0754,25345.9841,-571.0200,29525.3580,22334.2430,27052.8081,17748.0674,24681.2656,38348.5750,0.0520,0.9740,0.1180,192.0000,0.0000,0.0000,0.0000,0.0000,0.0000,0.0000,0.0000,0.0000,0.0000,1623894918.918000,2021-06-16 18:55:18.917999
120.000,66076.9869,53605.8535,-23395.7050,47173.5802,36706.7724,52258.9597,17145.6655,-19597.0708,25335.7470,-718.2510,29539.6855,22260.5717,27230.1915,17678.9111,24733.9263,38406.8684,0.0520,0.9740,0.1180,192.0000,0.0000,0.0000,0.0000,0.0000,0.0000,0.0000,0.0000,0.0000,0.0000,1623894918.924500,2021-06-16 18:55:18.924499
122.000,66108.2794,53648.5676,-23374.3144,47201.0058,36487.4570,52319.1976,16841.6818,-19710.8411,25350.5663,-583.4252,29529.0461,22318.7756,27099.0091,17739.6855,24682.5844,38359.2815,0.0460,0.9740,0.1240,192.0000,0.5000,56.0000,15.0000,56.0000,1.5000,112.0000,0.0000,0.0000,0.0000,1623894918.931000,2021-06-16 18:55:18.930999
124.000,66077.6351,53602.9030,-23382.0258,47176.0389,36724.0726,52241.8829,17149.3089,-19600.6023,25330.0026,-699.5649,29526.0286,22259.9458,27187.6338,17691.8528,24723.4210,38401.2357,0.0460,0.9740,0.1240,192.0000,0.0000,0.0000,0.0000,0.0000,0.0000,0.0000,0.0000,0.0000,0.0000,1623894918.937500,2021-06-16 18:55:18.937500
126.000,66122.5621,53670.8970,-23363.1832,47208.7171,36465.8429,52286.2288,16826.0356,-19737.7079,25356.8247,-583.8052,29536.4221,22313.5453,27132.8496,17728.5543,24694.7214,38357.8063,0.0460,0.9740,0.1240,192.0000,0.0000,0.0000,0.0000,0.0000,0.0000,0.0000,0.0000,0.0000,0.0000,1623894918.944000,2021-06-16 18:55:18.944000
128.000,66066.4592,53593.0459,-23391.6370,47170.8309,36723.3573,52223.4651,17142.7151,-19612.6499,25319.5644,-672.7428,29524.7769,22271.7923,27142.9973,17711.6564,24715.1062,38394.6420,0.0460,0.9740,0.1240,192.0000,0.0000,0.0000,0.0000,0.0000,0.0000,0.0000,0.0000,0.0000,0.0000,1623894918.950500,2021-06-16 18:55:18.950500
130.000,66117.6000,53671.8134,-23370.5593,47208.6724,36473.3754,52288.7769,16847.6721,-19726.8450,25347.5041,-618.0928,29533.5835,22295.7980,27137.1412,17701.8887,24699.1247,38353.7383,0.0460,0.9740,0.1240,192.0000,0.0000,0.0000,0.0000,0.0000,0.0000,0.0000,0.0000,0.0000,0.0000,1623894918.957000,2021-06-16 18:55:18.957000
132.000,66062.7936,53589.9167,-23382.9645,47180.6880,36737.6178,52282.6972,17169.1796,-19579.8152,25338.3175,-652.0004,29535.3269,22294.9934,27134.6601,17751.2637,24714.2568,38408.9247,0.0500,0.9780,0.1120,192.0000,0.5000,72.0000,15.0000,72.0000,1.5000,64.0000,0.0000,0.0000,0.0000,1623894918.964430,2021-06-16 18:55:18.964428
134.000,66123.1433,53673.6686,-23375.6779,47198.5024,36471.0285,52297.6058,16875.6788,-19719.5360,25373.3650,-634.3425,29555.4435,22295.2616,27226.3917,17717.8479,24717.7884,38385.5225,0.0500,0.9780,0.1120,192.0000,0.0000,0.0000,0.0000,0.0000,0.0000,0.0000,0.0000,0.0000,0.0000,1623894918.971860,2021-06-16 18:55:18.971857
136.000,66083.9383,53600.9808,-23367.3183,47181.0457,36720.0716,52284.0607,17140.1447,-19600.8259,25326.7169,-645.3843,29520.8653,22295.4404,27082.6700,17753.3648,24695.9954,38389.3446,0.0500,0.9780,0.1120,192.0000,0.0000,0.0000,0.0000,0.0000,0.0000,0.0000,0.0000,0.0000,0.0000,1623894918.979290,2021-06-16 18:55:18.979285
138.000,66140.1753,53683.2128,-23374.9626,47199.0612,36483.5455,52291.3027,16904.3561,-19714.2163,25378.1483,-652.1792,29564.3842,22295.3063,27256.4101,17698.7818,24725.3433,38387.3106,0.0500,0.9780,0.1120,192.0000,0.0000,0.0000,0.0000,0.0000,0.0000,0.0000,0.0000,0.0000,0.0000,1623894918.986710,2021-06-16 18:55:18.986714
140.000,66090.8226,53605.1382,-23355.4272,47187.0136,36703.1290,52305.2054,17115.7589,-19602.7705,25336.5070,-621.0209,29529.3813,22314.4170,27063.1346,17774.8224,24682.9867,38384.8072,0.0500,0.9780,0.1120,192.0000,0.0000,0.0000,0.0000,0.0000,0.0000,0.0000,0.0000,0.0000,0.0000,1623894918.994140,2021-06-16 18:55:18.994143
142.000,66152.5805,53692.9582,-23350.4651,47201.3411,36507.5960,52278.1151,16919.3318,-19716.3397,25386.3737,-668.3172,29577.5493,22290.2995,27288.3731,17685.7954,24736.9662,38398.3300,0.0580,0.9800,0.1060,192.0000,0.5000,104.0000,15.0000,80.0000,1.5000,40.0000,0.0000,0.0000,0.0000,1623894919.001570,2021-06-16 18:55:19.001571
144.000,66097.5952,53615.5318,-23336.7188,47191.8416,36679.3468,52295.5718,17046.7144,-19645.5741,25339.2339,-591.8295,29533.3376,22335.3606,27033.0044,17775.5824,24685.6689,38378.2805,0.0580,0.9800,0.1060,192.0000,0.0000,0.0000,0.0000,0.0000,0.0000,0.0000,0.0000,0.0000,0.0000,1623894919.009000,2021-06-16 18:55:19.009000
146.000,66143.2598,53685.0457,-23363.8761,47193.8532,36537.6144,52259.6973,16948.0538,-19715.2444,25380.1823,-685.3492,29576.2753,22285.8962,27304.2652,17676.6759,24753.8194,38401.5487,0.0580,0.9800,0.1060,192.0000,0.0000,0.0000,0.0000,0.0000,0.0000,0.0000,0.0000,0.0000,0.0000,1623894919.015380,2021-06-16 18:55:19.015375
148.000,66087.2911,53606.6581,-23355.4272,47187.7959,36647.6743,52308.6253,17019.4899,-19651.4973,25339.5692,-576.2280,29534.3211,22342.7144,27018.3193,17785.9760,24685.0878,38366.7917,0.0580,0.9800,0.1060,192.0000,0.0000,0.0000,0.0000,0.0000,0.0000,0.0000,0.0000,0.0000,0.0000,1623894919.021750,2021-06-16 18:55:19.021749
150.000,66133.8498,53672.3946,-23382.2940,47186.5666,36570.7173,52269.2415,17017.7465,-19672.4856,25369.2970,-715.4793,29577.2141,22270.9876,27335.0659,17685.6837,24753.7300,38409.7965,0.0580,0.9800,0.1060,192.0000,0.0000,0.0000,0.0000,0.0000,0.0000,0.0000,0.0000,0.0000,0.0000,1623894919.028130,2021-06-16 18:55:19.028125
152.000,66111.2074,53632.7426,-23332.2037,47200.5140,36610.0564,52298.0752,16965.9575,-19684.4437,25340.1280,-564.8509,29536.9809,22351.2527,27012.1055,17785.4619,24684.0819,38364.6683,0.0680,0.9900,0.1120,192.0000,1.0000,16.0000,15.0000,120.0000,1.5000,64.0000,0.0000,0.0000,0.0000,1623894919.034500,2021-06-16 18:55:19.034500
154.000,66133.1792,53670.1818,-23366.7148,47181.1127,36586.2741,52201.9627,17001.4297,-19719.2007,25356.6906,-728.9351,29571.8944,22265.1761,27299.6160,17659.5545,24763.5647,38407.0472,0.0680,0.9900,0.1120,192.0000,0.0000,0.0000,0.0000,0.0000,0.0000,0.0000,0.0000,0.0000,0.0000,1623894919.040870,2021-06-16 18:55:19.040874
156.000,66110.7381,53637.1906,-23354.8460,47204.4479,36588.5316,52317.2530,16933.1899,-19703.1298,25343.2796,-567.3767,29543.5970,22352.5491,27009.8704,17777.5941,24687.2559,38359.4603,0.0680,0.9900,0.1120,192.0000,0.0000,0.0000,0.0000,0.0000,0.0000,0.0000,0.0000,0.0000,0.0000,1623894919.047250,2021-06-16 18:55:19.047250
158.000,66136.5320,53663.5433,-23371.4087,47177.4917,36620.8299,52189.1328,17026.0614,-19719.2007,25359.4175,-739.0828,29576.4318,22262.1363,27307.9532,17669.0093,24760.6590,38410.0200,0.0680,0.9900,0.1120,192.0000,0.0000,0.0000,0.0000,0.0000,0.0000,0.0000,0.0000,0.0000,0.0000,1623894919.053620,2021-06-16 18:55:19.053624
160.000,66116.8401,53647.3159,-23347.6711,47215.4227,36553.2606,52300.9363,16871.9014,-19743.9217,25346.6994,-566.6167,29550.8837,22353.7114,27024.0637,17766.6194,24686.8536,38353.6489,0.0680,0.9900,0.1120,192.0000,0.0000,0.0000,0.0000,0.0000,0.0000,0.0000,0.0000,0.0000,0.0000,1623894919.060000,2021-06-16 18:55:19.059999
162.000,66109.9110,53633.3684,-23381.0646,47182.0068,36668.4391,52219.0171,17080.3761,-19686.8801,25352.4661,-734.0313,29577.9070,22271.4570,27302.0300,17687.3824,24762.1566,38424.3922,0.0650,0.9900,0.1120,192.0000,0.5000,120.0000,15.0000,120.0000,1.5000,64.0000,0.0000,0.0000,0.0000,1623894919.067430,2021-06-16 18:55:19.067428
164.000,66130.1617,53654.7144,-23333.9248,47211.2652,36504.2879,52262.2901,16798.0289,-19804.1150,25349.0240,-576.4291,29549.1850,22347.3188,27050.3270,17761.0761,24686.2053,38354.4312,0.0650,0.9900,0.1120,192.0000,0.0000,0.0000,0.0000,0.0000,0.0000,0.0000,0.0000,0.0000,0.0000,1623894919.074860,2021-06-16 18:55:19.074856
166.000,66114.7614,53626.6182,-23365.2173,47182.4985,36689.9862,52190.6528,17067.8591,-19714.9539,25346.6994,-733.4054,29572.1402,22271.7699,27251.0904,17679.2687,24751.0254,38410.8470,0.0650,0.9900,0.1120,192.0000,0.0000,0.0000,0.0000,0.0000,0.0000,0.0000,0.0000,0.0000,0.0000,1623894919.082290,2021-06-16 18:55:19.082285
168.000,66135.7720,53657.9330,-23346.9112,47210.5500,36482.0479,52257.4621,16768.3234,-19828.1878,25356.4224,-585.9063,29561.5902,22340.8815,27078.7584,17746.1899,24693.7155,38353.8724,0.0650,0.9900,0.1120,192.0000,0.0000,0.0000,0.0000,0.0000,0.0000,0.0000,0.0000,0.0000,0.0000,1623894919.089710,2021-06-16 18:55:19.089714
170.000,66097.0141,53610.6591,-23381.1093,47177.1565,36709.9463,52197.7830,17076.3081,-19714.7751,25337.6022,-727.8399,29565.5912,22274.8545,27212.3548,17688.1424,24739.8719,38399.1123,0.0650,0.9900,0.1120,192.0000,0.0000,0.0000,0.0000,0.0000,0.0000,0.0000,0.0000,0.0000,0.0000,1623894919.097140,2021-06-16 18:55:19.097142
172.000,66147.7078,53679.2119,-23337.5011,47212.1817,36467.9663,52236.0044,16730.9513,-19869.8515,25359.2164,-607.8557,29562.3278,22335.4277,27113.7389,17734.7905,24695.0343,38353.1124,0.0645,0.9880,0.1080,192.0000,1.0000,0.0000,15.0000,104.0000,1.5000,32.0000,0.0000,0.0000,0.0000,1623894919.104570,2021-06-16 18:55:19.104571
174.000,66091.1803,53599.3491,-23364.8820,47181.7833,36729.7276,52186.7859,17060.5501,-19739.0267,25331.5896,-716.3287,29556.2034,22287.7961,27163.6280,17698.5359,24730.3724,38391.2222,0.0645,0.9880,0.1080,192.0000,0.0000,0.0000,0.0000,0.0000,0.0000,0.0000,0.0000,0.0000,0.0000,1623894919.112000,2021-06-16 18:55:19.111999
176.000,66143.5728,53673.6910,-23346.5312,47209.9912,36462.0431,52231.4223,16741.8813,-19872.6678,25360.9151,-636.8012,29569.4133,22323.8495,27162.8904,17727.0121,24704.8020,38362.0978,0.0645,0.9880,0.1080,192.0000,0.0000,0.0000,0.0000,0.0000,0.0000,0.0000,0.0000,0.0000,0.0000,1623894919.118380,2021-06-16 18:55:19.118375
178.000,66104.0772,53606.2558,-23342.3067,47188.6006,36724.9220,52180.9297,17033.2363,-19765.6923,25336.7752,-694.6475,29557.9692,22297.4968,27122.9925,17710.5388,24714.4133,38386.1930,0.0645,0.9880,0.1080,192.0000,0.0000,0.0000,0.0000,0.0000,0.0000,0.0000,0.0000,0.0000,0.0000,1623894919.124750,2021-06-16 18:55:19.124750
180.000,66138.1860,53665.7785,-23359.3834,47206.8396,36460.6126,52229.8354,16750.7102,-19874.3889,25370.8393,-652.6039,29583.8749,22318.3957,27200.0166,17706.6720,24710.4346,38370.2115,0.0645,0.9880,0.1080,192.0000,0.0000,0.0000,0.0000,0.0000,0.0000,0.0000,0.0000,0.0000,0.0000,1623894919.131120,2021-06-16 18:55:19.131124
182.000,66095.9635,53594.0294,-23352.4768,47185.4266,36708.6052,52191.4127,17012.2480,-19762.8090,25326.1358,-688.6572,29552.9624,22306.1469,27098.0256,17733.7399,24675.4318,38385.0307,0.0603,0.9860,0.1090,192.0000,0.5000,96.0000,15.0000,96.0000,1.5000,56.0000,0.0000,0.0000,0.0000,1623894919.137500,2021-06-16 18:55:19.137500
184.000,66157.0062,53684.4422,-23348.5205,47213.3886,36464.4124,52196.5089,16737.4780,-19898.0817,25360.3563,-693.0829,29575.3365,22297.9885,27202.9894,17667.1988,24632.9635,38359.9297,0.0603,0.9860,0.1090,192.0000,0.0000,0.0000,0.0000,0.0000,0.0000,0.0000,0.0000,0.0000,0.0000,1623894919.143880,2021-06-16 18:55:19.143875
186.000,66098.8916,53598.7679,-23348.5876,47200.8270,36712.6956,52227.9131,16998.7028,-19760.2161,25341.7150,-655.4202,29565.5688,22331.5832,27085.9780,17761.0091,24585.0861,38393.8373,0.0603,0.9860,0.1090,192.0000,0.0000,0.0000,0.0000,0.0000,0.0000,0.0000,0.0000,0.0000,0.0000,1623894919.150250,2021-06-16 18:55:19.150249
188.000,66146.7914,53675.7027,-23371.0958,47203.1739,36485.7807,52224.4486,16797.4477,-19860.4637,25376.3155,-703.9235,29594.5367,22297.9438,27287.2779,17690.4670,24596.8878,38393.6362,0.0603,0.9860,0.1090,192.0000,0.0000,0.0000,0.0000,0.0000,0.0000,0.0000,0.0000,0.0000,0.0000,1623894919.156630,2021-06-16 18:55:19.156625
190.000,66090.3980,53593.2918,-23354.5108,47189.5617,36676.1728,52236.2727,16953.0159,-19780.4892,25327.4322,-642.4338,29546.1004,22327.2916,27035.7760,17758.4610,24539.1756,38372.1785,0.0603,0.9860,0.1090,192.0000,0.0000,0.0000,0.0000,0.0000,0.0000,0.0000,0.0000,0.0000,0.0000,1623894919.163000,2021-06-16 18:55:19.163000
192.000,66146.5903,53675.3003,-23369.5758,47196.7142,36505.6067,52214.2338,16811.2611,-19868.8903,25369.0511,-724.6659,29586.1548,22282.6105,27298.7443,17673.1891,24581.0404,38391.0657,0.0661,0.9880,0.1135,192.0000,1.0000,32.0000,15.0000,120.0000,1.5000,88.0000,0.0000,0.0000,0.0000,1623894919.170430,2021-06-16 18:55:19.170428
194.000,66089.2133,53594.4764,-23359.3611,47191.7075,36647.3167,52252.8800,16908.8935,-19802.0363,25332.1931,-621.7585,29545.7875,22334.7571,27012.8431,17765.5688,24515.5274,38361.3602,0.0661,0.9880,0.1135,192.0000,0.0000,0.0000,0.0000,0.0000,0.0000,0.0000,0.0000,0.0000,0.0000,1623894919.177860,2021-06-16 18:55:19.177857
196.000,66162.9964,53684.6881,-23358.7799,47203.6880,36530.9312,52185.7130,16816.3349,-19894.0584,25374.3038,-729.8962,29593.9779,22274.5639,27311.0154,17659.6663,24581.5321,38396.2066,0.0661,0.9880,0.1135,192.0000,0.0000,0.0000,0.0000,0.0000,0.0000,0.0000,0.0000,0.0000,0.0000,1623894919.185290,2021-06-16 18:55:19.185285
198.000,66100.3221,53603.4618,-23354.4214,47200.7823,36611.7327,52246.8003,16842.8665,-19852.7747,25333.8248,-602.4242,29551.7107,22342.6473,26992.1454,17759.1986,24510.9230,38356.9346,0.0661,0.9880,0.1135,192.0000,0.0000,0.0000,0.0000,0.0000,0.0000,0.0000,0.0000,0.0000,0.0000,1623894919.192710,2021-06-16 18:55:19.192714
200.000,66136.5543,53651.4957,-23384.7303,47191.5733,36574.8971,52203.4156,16886.6982,-19861.6707,25368.5818,-751.2198,29595.9895,22262.6057,27320.3361,17662.9073,24573.9996,38405.6390,0.0661,0.9880,0.1135,192.0000,0.0000,0.0000,0.0000,0.0000,0.0000,0.0000,0.0000,0.0000,0.0000,1623894919.200140,2021-06-16 18:55:19.200142
202.000,66118.7400,53621.7679,-23337.3446,47202.3692,36581.7143,52241.8606,16795.4808,-19882.7931,25338.6081,-598.7362,29556.0246,22342.6473,27002.0919,17771.5367,24496.7296,38351.7490,0.0711,0.9860,0.1108,192.0000,1.0000,48.0000,15.0000,96.0000,1.5000,48.0000,0.0000,0.0000,0.0000,1623894919.207570,2021-06-16 18:55:19.207571
204.000,66138.2083,53650.3334,-23369.9335,47187.4159,36613.6326,52177.8228,16912.6933,-19861.0672,25363.8655,-754.9972,29601.0857,22266.1373,27313.8317,17670.8421,24581.6215,38413.3504,0.0711,0.9860,0.1108,192.0000,0.0000,0.0000,0.0000,0.0000,0.0000,0.0000,0.0000,0.0000,0.0000,1623894919.215000,2021-06-16 18:55:19.214999
206.000,66108.8829,53618.5492,-23360.8587,47202.1010,36555.2052,52257.7080,16780.9968,-19876.7581,25336.3058,-593.9306,29560.6514,22346.3577,27013.3796,17774.2189,24503.7928,38358.0745,0.0711,0.9860,0.1108,192.0000,0.0000,0.0000,0.0000,0.0000,0.0000,0.0000,0.0000,0.0000,0.0000,1623894919.273380,2021-06-16 18:55:19.273375
208.000,66138.4319,53643.0691,-23371.3640,47177.9611,36631.0223,52143.5800,16926.6408,-19866.3199,25346.5653,-767.1119,29583.8972,22256.2578,27293.5140,17675.4689,24572.8597,38416.3679,0.0711,0.9860,0.1108,192.0000,0.0000,0.0000,0.0000,0.0000,0.0000,0.0000,0.0000,0.0000,0.0000,1623894919.279750,2021-06-16 18:55:19.279749
210.000,66131.6146,53641.0574,-23346.9559,47218.9766,36540.9895,52278.1822,16751.3808,-19895.7571,25348.3981,-595.9646,29559.0868,22350.6716,27023.1920,17759.7350,24501.2447,38355.9735,0.0711,0.9860,0.1108,192.0000,0.0000,0.0000,0.0000,0.0000,0.0000,0.0000,0.0000,0.0000,0.0000,1623894919.286120,2021-06-16 18:55:19.286124
212.000,66128.6642,53632.6308,-23372.1910,47182.2527,36673.6694,52177.8899,16962.7836,-19847.0527,25350.1192,-751.1974,29584.0537,22273.7592,27282.4052,17693.9762,24573.8431,38430.2260,0.0735,0.9830,0.1104,192.0000,1.0000,48.0000,15.0000,80.0000,1.5000,56.0000,0.0000,0.0000,0.0000,1623894919.292500,2021-06-16 18:55:19.292500
214.000,66137.2919,53651.7863,-23361.1492,47223.7822,36518.0566,52321.3434,16745.0329,-19886.8835,25352.1756,-595.9199,29558.8633,22352.2362,27064.6992,17761.0538,24512.3311,38367.2164,0.0735,0.9830,0.1104,192.0000,0.0000,0.0000,0.0000,0.0000,0.0000,0.0000,0.0000,0.0000,0.0000,1623894919.298880,2021-06-16 18:55:19.298875
216.000,66123.2550,53624.2489,-23379.6788,47188.9135,36718.1270,52261.1278,17032.2751,-19784.3337,25350.6557,-735.9982,29569.5921,22281.8506,27267.3848,17718.2725,24570.7139,38433.9587,0.0735,0.9830,0.1104,192.0000,0.0000,0.0000,0.0000,0.0000,0.0000,0.0000,0.0000,0.0000,0.0000,1623894919.305250,2021-06-16 18:55:19.305250
218.000,66150.4795,53667.6113,-23358.5341,47210.7511,36483.5008,52322.8186,16719.9542,-19902.9544,25366.2348,-603.6312,29553.7671,22341.9320,27125.6300,17761.5455,24521.7412,38376.5818,0.0735,0.9830,0.1104,192.0000,0.0000,0.0000,0.0000,0.0000,0.0000,0.0000,0.0000,0.0000,0.0000,1623894919.311630,2021-06-16 18:55:19.311625
220.000,66110.1346,53609.8768,-23385.3785,47177.4917,36725.0561,52270.3144,17040.6570,-19778.6563,25338.6304,-720.8438,29542.5465,22279.3695,27211.1702,17713.6234,24555.2912,38414.7586,0.0735,0.9830,0.1104,192.0000,0.0000,0.0000,0.0000,0.0000,0.0000,0.0000,0.0000,0.0000,0.0000,1623894919.318000,2021-06-16 18:55:19.318000
222.000,66158.2355,53674.4957,-23367.5642,47203.3080,36470.6262,52316.7836,16724.6257,-19904.6755,25360.6469,-616.8187,29542.9488,22321.7708,27164.3209,17749.3415,24523.1047,38378.0570,0.0748,0.9845,0.1072,192.0000,1.0000,48.0000,15.0000,104.0000,1.5000,32.0000,0.0000,0.0000,0.0000,1623894919.325290,2021-06-16 18:55:19.325285
224.000,66118.8964,53609.8321,-23368.7712,47182.4762,36734.7120,52260.6361,17036.2985,-19783.4173,25327.5663,-693.4629,29523.2793,22284.6445,27162.1975,17724.4193,24543.5565,38410.8693,0.0748,0.9845,0.1072,192.0000,0.0000,0.0000,0.0000,0.0000,0.0000,0.0000,0.0000,0.0000,0.0000,1623894919.332570,2021-06-16 18:55:19.332571
226.000,66175.3346,53687.7726,-23350.7110,47208.8289,36468.2792,52279.6127,16714.6569,-19926.9602,25364.9831,-626.6759,29542.9712,22316.1158,27196.0380,17728.2191,24535.0182,38383.7567,0.0748,0.9845,0.1072,192.0000,0.0000,0.0000,0.0000,0.0000,0.0000,0.0000,0.0000,0.0000,0.0000,1623894919.339860,2021-06-16 18:55:19.339857
228.000,66114.0685,53597.8515,-23363.0938,47174.0272,36735.5390,52251.0695,17025.5473,-19787.9100,25323.7889,-681.4376,29516.9761,22290.9701,27117.2928,17736.2433,24530.5254,38397.9053,0.0748,0.9845,0.1072,192.0000,0.0000,0.0000,0.0000,0.0000,0.0000,0.0000,0.0000,0.0000,0.0000,1623894919.347140,2021-06-16 18:55:19.347142
230.000,66162.4376,53674.3615,-23363.0268,47189.6064,36474.0683,52264.7041,16753.4371,-19911.8951,25365.1396,-660.1364,29546.9498,22296.8709,27230.5044,17710.7623,24532.0230,38381.9909,0.0748,0.9845,0.1072,192.0000,0.0000,0.0000,0.0000,0.0000,0.0000,0.0000,0.0000,0.0000,0.0000,1623894919.354430,2021-06-16 18:55:19.354428
232.000,66109.3522,53591.3919,-23350.1969,47173.5802,36726.2184,52264.5923,17020.9875,-19781.5621,25313.9317,-668.0489,29509.8236,22293.5629,27082.9159,17754.2365,24509.0678,38388.3611,0.0754,0.9903,0.1066,192.0000,1.0000,48.0000,15.5000,16.0000,1.5000,40.0000,0.0000,0.0000,0.0000,1623894919.361710,2021-06-16 18:55:19.361714
234.000,66170.6854,53677.7143,-23353.6614,47192.2886,36494.8108,52262.9383,16788.1717,-19896.4277,25367.4865,-685.6174,29550.8167,22282.3646,27274.0009,17705.4650,24541.4778,38394.3738,0.0754,0.9903,0.1066,192.0000,0.0000,0.0000,0.0000,0.0000,0.0000,0.0000,0.0000,0.0000,0.0000,1623894919.369000,2021-06-16 18:55:19.368999
236.000,66129.2676,53607.7757,-23334.3942,47184.9125,36697.1388,52254.5340,16964.0129,-19817.4813,25314.1553,-640.3328,29505.5097,22305.9010,27052.6069,17768.1393,24497.6460,38382.2368,0.0754,0.9903,0.1066,192.0000,0.0000,0.0000,0.0000,0.0000,0.0000,0.0000,0.0000,0.0000,0.0000,1623894919.375380,2021-06-16 18:55:19.375375
238.000,66190.2879,53690.7677,-23346.8218,47196.6025,36501.0469,52212.6916,16766.0882,-19938.5607,25351.1250,-704.3929,29535.2598,22270.7864,27244.6307,17662.6167,24539.0862,38378.8617,0.0754,0.9903,0.1066,192.0000,0.0000,0.0000,0.0000,0.0000,0.0000,0.0000,0.0000,0.0000,0.0000,1623894919.381750,2021-06-16 18:55:19.381750
240.000,66132.5757,53609.2509,-23350.5098,47201.2740,36695.2836,52304.4008,16950.9371,-19804.2267,25322.0678,-613.0860,29513.7351,22332.5890,27037.9218,17793.8885,24503.5022,38390.7751,0.0754,0.9903,0.1066,192.0000,0.0000,0.0000,0.0000,0.0000,0.0000,0.0000,0.0000,0.0000,0.0000,1623894919.388120,2021-06-16 18:55:19.388124
242.000,66186.6222,53683.1905,-23368.3465,47198.7259,36553.4617,52266.8498,16862.3795,-19863.6377,25359.6858,-710.9196,29552.5824,22275.2121,27318.9279,17700.0782,24568.1211,38416.7255,0.0747,0.9901,0.1043,192.0000,1.0000,40.0000,15.0000,120.0000,1.5000,24.0000,0.0000,0.0000,0.0000,1623894919.394500,2021-06-16 18:55:19.394500
244.000,66153.7875,53631.6474,-23326.3923,47206.6161,36653.3964,52285.1559,16880.9985,-19842.9623,25316.2787,-587.6274,29504.5933,22336.7464,27003.7907,17785.5960,24502.8093,38373.6984,0.0747,0.9901,0.1043,192.0000,0.0000,0.0000,0.0000,0.0000,0.0000,0.0000,0.0000,0.0000,0.0000,1623894919.400880,2021-06-16 18:55:19.400875
246.000,66183.0012,53675.6579,-23364.3902,47203.3304,36590.2527,52258.1327,16899.6846,-19848.5502,25353.2485,-714.4288,29551.8225,22272.2393,27311.0154,17685.3037,24581.5098,38421.7323,0.0747,0.9901,0.1043,192.0000,0.0000,0.0000,0.0000,0.0000,0.0000,0.0000,0.0000,0.0000,0.0000,1623894919.407250,2021-06-16 18:55:19.407249
248.000,66153.4969,53631.7368,-23334.0142,47209.2983,36621.2099,52308.3794,16860.5690,-19839.0060,25314.6246,-579.7372,29502.6710,22334.8465,27001.5555,17794.9390,24506.3632,38377.0512,0.0747,0.9901,0.1043,192.0000,0.0000,0.0000,0.0000,0.0000,0.0000,0.0000,0.0000,0.0000,0.0000,1623894919.413630,2021-06-16 18:55:19.413625
250.000,66192.5231,53680.3518,-23358.7129,47203.1515,36619.4664,52247.9850,16928.2501,-19845.6222,25345.1124,-726.2305,29542.2559,22261.8457,27306.6792,17686.8907,24589.8693,38427.6332,0.0747,0.9901,0.1043,192.0000,0.0000,0.0000,0.0000,0.0000,0.0000,0.0000,0.0000,0.0000,0.0000,1623894919.420000,2021-06-16 18:55:19.420000
252.000,66170.1713,53647.8524,-23350.2192,47216.0709,36585.3353,52315.8002,16814.4350,-19861.0672,25320.6820,-569.2095,29503.8109,22344.5025,26997.2640,17789.6193,24510.9900,38371.2397,0.0747,0.9901,0.1043,192.0000,0.0000,0.0000,0.0000,0.0000,0.0000,0.0000,0.0000,0.0000,0.0000,1623894919.427290,2021-06-16 18:55:19.427285
254.000,66195.2276,53675.3674,-23368.1453,47197.6977,36648.5014,52252.7459,16963.4094,-19830.0430,25345.9841,-722.1849,29540.8478,22270.1829,27286.6297,17692.2104,24584.2143,38429.8907,0.0800,0.9820,0.1000,192.0000,1.0000,64.0000,15.0000,88.0000,1.5000,16.0000,0.0000,0.0000,0.0000,1623894919.434570,2021-06-16 18:55:19.434571
0.000,66182.1966,53661.1517,-23339.7810,47212.6957,36550.7572,52323.6009,16771.6538,-19887.0399,25337.5575,-564.7839,29511.6564,22349.0399,27012.4855,17788.3676,24511.9288,38369.3398,0.0800,0.9820,0.1000,192.0000,0.0000,0.0000,0.0000,0.0000,0.0000,0.0000,0.0000,0.0000,0.0000,1623894919.441860,2021-06-16 18:55:19.441857
2.000,66166.3492,53644.7231,-23382.4728,47183.9514,36684.4653,52278.0481,17020.6075,-19791.3745,25336.4847,-734.5677,29533.9187,22262.5610,27271.4081,17700.1676,24587.5224,38427.8343,0.0800,0.9820,0.1000,192.0000,0.0000,0.0000,0.0000,0.0000,0.0000,0.0000,0.0000,0.0000,0.0000,1623894919.449140,2021-06-16 18:55:19.449142
4.000,66186.1305,53669.4442,-23342.9549,47212.2487,36521.0294,52353.7311,16782.3379,-19863.9953,25336.6635,-579.4690,29514.9868,22338.8699,27059.4242,17784.8584,24519.1708,38370.3009,0.0800,0.9820,0.1000,192.0000,0.0000,0.0000,0.0000,0.0000,0.0000,0.0000,0.0000,0.0000,0.0000,1623894919.456430,2021-06-16 18:55:19.456428
6.000,66182.7777,53655.2061,-23357.0812,47179.4811,36686.0970,52243.4252,17018.9312,-19806.7525,25334.8083,-726.4540,29535.5728,22271.3676,27247.1565,17705.9344,24579.2970,38421.3523,0.0800,0.9820,0.1000,192.0000,0.0000,0.0000,0.0000,0.0000,0.0000,0.0000,0.0000,0.0000,0.0000,1623894919.463710,2021-06-16 18:55:19.463714
8.000,66196.8593,53686.2303,-23337.3893,47228.0067,36518.0119,52378.6533,16785.7354,-19860.2626,25341.9608,-587.2027,29525.8274,22341.9097,27071.8070,17762.3949,24529.0949,38365.6741,0.0660,0.9880,0.0960,192.0000,1.0000,8.0000,15.0000,112.0000,1.5000,0.0000,0.0000,0.0000,0.0000,1623894919.471000,2021-06-16 18:55:19.470999
10.000,66162.8623,53632.4297,-23363.3844,47181.6715,36727.5148,52306.8818,17084.9806,-19750.0908,25341.9161,-707.0974,29544.8487,22287.6620,27242.4626,17739.1714,24590.3611,38439.3008,0.0660,0.9880,0.0960,192.0000,0.0000,0.0000,0.0000,0.0000,0.0000,0.0000,0.0000,0.0000,0.0000,1623894919.477380,2021-06-16 18:55:19.477375
12.000,66199.3627,53687.3926,-23346.3524,47222.1282,36504.8020,52417.5453,16818.7489,-19827.4725,25349.8957,-607.7439,29531.6389,22324.5647,27141.0080,17768.5640,24545.8140,38383.0638,0.0660,0.9880,0.0960,192.0000,0.0000,0.0000,0.0000,0.0000,0.0000,0.0000,0.0000,0.0000,0.0000,1623894919.483750,2021-06-16 18:55:19.483749
14.000,66168.3832,53633.3237,-23352.3203,47193.5179,36750.7159,52365.7340,17132.1427,-19705.9685,25338.9657,-684.1869,29538.7020,22293.4064,27214.9253,17758.6845,24587.6118,38442.0053,0.0660,0.9880,0.0960,192.0000,0.0000,0.0000,0.0000,0.0000,0.0000,0.0000,0.0000,0.0000,0.0000,1623894919.490120,2021-06-16 18:55:19.490124
16.000,66217.7359,53703.7988,-23334.0142,47220.8988,36482.6291,52398.4569,16810.4341,-19842.5376,25368.0230,-609.1297,29551.5766,22326.9564,27209.4714,17768.0275,24567.7858,38407.4272,0.0660,0.9880,0.0960,192.0000,0.0000,0.0000,0.0000,0.0000,0.0000,0.0000,0.0000,0.0000,0.0000,1623894919.496500,2021-06-16 18:55:19.496500
18.000,66157.1626,53621.5444,-23353.0356,47191.1263,36746.0220,52364.3705,17126.7113,-19701.2075,25322.0007,-681.5941,29525.4027,22293.0488,27160.3870,17756.9411,24572.2115,38428.6390,0.0680,0.9900,0.0960,192.0000,1.0000,16.0000,15.0000,120.0000,1.5000,0.0000,0.0000,0.0000,0.0000,1623894919.502880,2021-06-16 18:55:19.502875
20.000,66207.2529,53695.2157,-23355.4495,47204.4256,36483.4561,52383.6824,16836.1386,-19825.1033,25357.6518,-639.1034,29548.7603,22311.0866,27239.8922,17742.6359,24566.9141,38406.4661,0.0680,0.9900,0.0960,192.0000,0.0000,0.0000,0.0000,0.0000,0.0000,0.0000,0.0000,0.0000,0.0000,1623894919.509250,2021-06-16 18:55:19.509250
22.000,66154.4581,53617.6328,-23347.4923,47191.4169,36746.1785,52370.7408,17127.7618,-19682.6556,25310.0872,-667.7360,29519.3007,22295.6192,27125.3171,17765.4124,24551.4690,38416.4796,0.0680,0.9900,0.0960,192.0000,0.0000,0.0000,0.0000,0.0000,0.0000,0.0000,0.0000,0.0000,0.0000,1623894919.515630,2021-06-16 18:55:19.515625
24.000,66211.4103,53702.4800,-23346.7324,47211.6229,36500.8681,52372.1936,16877.6681,-19796.4036,25360.4234,-664.0927,29565.9488,22301.4754,27286.4285,17728.4649,24581.8898,38415.7644,0.0680,0.9900,0.0960,192.0000,0.0000,0.0000,0.0000,0.0000,0.0000,0.0000,0.0000,0.0000,0.0000,1623894919.522000,2021-06-16 18:55:19.522000
26.000,66155.6427,53622.0808,-23328.2028,47198.4353,36724.6537,52356.3909,17090.9485,-19693.9432,25309.2826,-640.3104,29528.3085,22315.5346,27086.6709,17770.8885,24546.4399,38406.7343,0.0680,0.9900,0.0960,192.0000,0.0000,0.0000,0.0000,0.0000,0.0000,0.0000,0.0000,0.0000,0.0000,1623894919.528500,2021-06-16 18:55:19.528500
28.000,66203.9001,53691.4606,-23350.2863,47204.6044,36518.1013,52357.0391,16913.2074,-19773.9178,25357.0706,-687.0479,29569.3910,22290.2548,27305.7627,17709.7342,24588.9529,38416.9937,0.0600,0.9860,0.0980,192.0000,0.5000,112.0000,15.0000,104.0000,1.5000,8.0000,0.0000,0.0000,0.0000,1623894919.535000,2021-06-16 18:55:19.535000
30.000,66158.5484,53622.7514,-23323.0842,47193.7191,36695.5965,52353.0158,17053.9563,-19703.1968,25305.4604,-623.9042,29521.2006,22323.1789,27055.6467,17779.4940,24532.1124,38394.5079,0.0600,0.9860,0.0980,192.0000,0.0000,0.0000,0.0000,0.0000,0.0000,0.0000,0.0000,0.0000,0.0000,1623894919.541500,2021-06-16 18:55:19.541500
32.000,66212.4832,53700.7143,-23337.5681,47201.2517,36534.1275,52322.2598,16925.2550,-19781.4727,25359.4846,-700.0343,29568.5192,22283.1470,27312.1553,17686.9354,24583.5661,38408.9024,0.0600,0.9860,0.0980,192.0000,0.0000,0.0000,0.0000,0.0000,0.0000,0.0000,0.0000,0.0000,0.0000,1623894919.548000,2021-06-16 18:55:19.547999
34.000,66169.9925,53634.4413,-23315.6187,47196.3566,36661.5324,52343.2705,16994.7913,-19731.7177,25318.1339,-605.6429,29521.4018,22331.9632,27029.3164,17781.1480,24526.4351,38381.6556,0.0600,0.9860,0.0980,192.0000,0.0000,0.0000,0.0000,0.0000,0.0000,0.0000,0.0000,0.0000,0.0000,1623894919.554500,2021-06-16 18:55:19.554499
36.000,66218.1829,53707.3080,-23335.7577,47192.9815,36549.9749,52264.9499,16912.8051,-19813.9497,25348.4652,-723.4813,29553.6106,22264.8632,27286.7638,17652.7372,24592.8645,38398.1065,0.0600,0.9860,0.0980,192.0000,0.0000,0.0000,0.0000,0.0000,0.0000,0.0000,0.0000,0.0000,0.0000,1623894919.561000,2021-06-16 18:55:19.560999
38.000,66184.2082,53654.6473,-23307.1027,47212.4946,36638.7560,52350.7583,16936.6767,-19768.2851,25328.2592,-571.6012,29530.6107,22354.8290,27013.6701,17780.6786,24535.1299,38382.8850,0.0580,0.9820,0.1120,192.0000,0.5000,104.0000,15.0000,88.0000,1.5000,64.0000,0.0000,0.0000,0.0000,1623894919.567500,2021-06-16 18:55:19.567499
40.000,66206.4035,53685.0680,-23341.1668,47197.3401,36600.9592,52302.5232,16982.5649,-19775.3259,25368.9617,-726.9011,29575.2471,22275.1003,27328.8521,17675.1560,24608.9801,38430.8295,0.0580,0.9820,0.1120,192.0000,0.0000,0.0000,0.0000,0.0000,0.0000,0.0000,0.0000,0.0000,0.0000,1623894919.574000,2021-06-16 18:55:19.573999
42.000,66155.7321,53625.5230,-23338.7528,47197.2283,36597.4947,52377.8039,16928.3842,-19754.2035,25328.1251,-591.9636,29524.7769,22334.2430,27025.9413,17784.7243,24521.3836,38377.0288,0.0580,0.9820,0.1120,192.0000,0.0000,0.0000,0.0000,0.0000,0.0000,0.0000,0.0000,0.0000,0.0000,1623894919.632290,2021-06-16 18:55:19.632285
44.000,66188.4104,53663.7221,-23353.5049,47186.4101,36632.6540,52318.7953,17050.9165,-19727.3591,25350.9686,-750.0351,29564.8312,22253.3968,27333.7024,17680.9228,24599.7712,38433.4446,0.0580,0.9820,0.1120,192.0000,0.0000,0.0000,0.0000,0.0000,0.0000,0.0000,0.0000,0.0000,0.0000,1623894919.639570,2021-06-16 18:55:19.639571
46.000,66184.7894,53657.3742,-23306.2086,47209.9912,36557.7309,52370.6066,16873.9577,-19783.5067,25340.2844,-573.9928,29535.4610,22345.3966,27036.6477,17773.9954,24528.8044,38377.8782,0.0580,0.9820,0.1120,192.0000,0.0000,0.0000,0.0000,0.0000,0.0000,0.0000,0.0000,0.0000,0.0000,1623894919.646860,2021-06-16 18:55:19.646857
48.000,66184.2976,53659.1847,-23336.6964,47188.0641,36660.2360,52306.9936,17069.7814,-19721.7488,25348.6887,-737.1605,29567.3793,22262.7845,27308.2661,17677.5700,24603.5039,38438.1832,0.0580,0.9780,0.1040,192.0000,0.5000,104.0000,15.0000,72.0000,1.5000,32.0000,0.0000,0.0000,0.0000,1623894919.654140,2021-06-16 18:55:19.654142
50.000,66191.4278,53669.3101,-23304.7111,47213.2545,36530.4171,52371.1654,16841.3018,-19794.2355,25344.3525,-568.2484,29542.4795,22340.8592,27063.6486,17770.5756,24531.8666,38383.0414,0.0580,0.9780,0.1040,192.0000,0.0000,0.0000,0.0000,0.0000,0.0000,0.0000,0.0000,0.0000,0.0000,1623894919.661430,2021-06-16 18:55:19.661428
52.000,66189.8185,53657.2178,-23335.1095,47180.4422,36687.0358,52288.5534,17078.5209,-19728.2084,25355.5730,-719.2121,29567.8263,22266.2937,27278.2925,17679.6264,24596.5302,38437.8703,0.0580,0.9780,0.1040,192.0000,0.0000,0.0000,0.0000,0.0000,0.0000,0.0000,0.0000,0.0000,0.0000,1623894919.668710,2021-06-16 18:55:19.668714
