%OpenBCI Raw EEG Data
%Number of channels = 16
%Sample Rate = 125 Hz
%Board = OpenBCI_GUI$BoardCytonSerialDaisy
%Logger = BCIpi Data Logger
Sample Index, EXG Channel 0, EXG Channel 1, EXG Channel 2, EXG Channel 3, EXG Channel 4, EXG Channel 5, EXG Channel 6, EXG Channel 7, EXG Channel 8, EXG Channel 9, EXG Channel 10, EXG Channel 11, EXG Channel 12, EXG Channel 13, EXG Channel 14, EXG Channel 15, Accel Channel 0, Accel Channel 1, Accel Channel 2, Accel Channel 3, Accel Channel 4, Accel Channel 5, Accel Channel 6, Accel Channel 7, Accel Channel 8, Accel Channel 9, Accel Channel 10, Accel Channel 11, Accel Channel 12, Accel Channel 13, Accel Channel 14, Accel Channel 15, Other, Other, Other, Other, Other, Other, Other, Analog Channel 0, Analog Channel 1, Analog Channel 2, Timestamp, Timestamp (Formatted)
76.000,-60683.7305,-51737.2891,-21027.4707,-11029.5352,-53186.7109,-16501.8457,-8164.7568,-17373.7422,0.0000,-9635.1660,-458.8142,0.0000,-24083.2207,-34129.2109,-20055.3262,-26746.9004,0.0044,0.9928,0.0028,192.0000,0.0000,0.0000,0.0000,0.0000,0.0000,0.0000,-11630.0000,5330.0000,23923.0000,1607234021.509430,2020-12-05 21:53:41.509428
78.000,-60642.6484,-51661.9883,-21063.9258,-11071.5117,-53262.5508,-16686.0469,-8262.9033,-17529.8027,0.0000,-10132.0674,-543.5497,0.0000,-24153.6738,-34541.2461,-20088.1152,-26898.8926,0.0044,0.9928,0.0028,192.0000,0.0000,0.0000,0.0000,0.0000,0.0000,0.0000,-11630.0000,5330.0000,23923.0000,1607234021.523860,2020-12-05 21:53:41.523857
80.000,-60692.4258,-51740.8672,-21033.1016,-11012.4580,-53166.5938,-16466.4629,-8165.5391,-17352.2402,0.0000,-9655.0596,-463.3964,0.0000,-24108.2109,-34159.5430,-20068.4453,-26766.3691,0.0042,0.9914,0.0044,192.0000,0.0000,16.0000,15.0000,120.0000,0.0000,24.0000,-11630.0000,5330.0000,23923.0000,1607234021.538290,2020-12-05 21:53:41.538285
82.000,-60648.1484,-51669.6094,-21092.6699,-11114.4268,-53241.2930,-16726.6152,-8261.2715,-17548.8457,0.0000,-10130.1006,-540.0852,0.0000,-24143.6152,-34528.2344,-20077.1406,-26882.3750,0.0042,0.9914,0.0044,192.0000,0.0000,0.0000,0.0000,0.0000,0.0000,0.0000,-11630.0000,5330.0000,23923.0000,1607234021.552710,2020-12-05 21:53:41.552714
84.000,-60715.4961,-51751.5742,-21043.5410,-11008.0771,-53167.0195,-16439.6621,-8157.8501,-17341.0859,0.0000,-9694.5322,-490.9784,0.0000,-24150.8359,-34208.3164,-20095.3125,-26799.3828,0.0042,0.9914,0.0044,192.0000,0.0000,0.0000,0.0000,0.0000,0.0000,0.0000,-11630.0000,5330.0000,23923.0000,1607234021.567140,2020-12-05 21:53:41.567142
86.000,-60620.6563,-51648.5547,-21069.8711,-11128.7764,-53231.0586,-16735.0859,-8253.1357,-17552.1992,0.0000,-10068.2314,-532.8655,0.0000,-24108.8594,-34475.8672,-20063.6621,-26860.5371,0.0042,0.9914,0.0044,192.0000,0.0000,0.0000,0.0000,0.0000,0.0000,0.0000,-11630.0000,5330.0000,23923.0000,1607234021.581570,2020-12-05 21:53:41.581571
88.000,-60716.2305,-51742.8555,-21033.5488,-10993.7949,-53166.3945,-16422.6074,-8177.5195,-17348.6641,0.0000,-9719.3428,-487.5362,0.0000,-24142.4531,-34243.3164,-20099.0000,-26820.7734,0.0042,0.9914,0.0044,192.0000,0.0000,0.0000,0.0000,0.0000,0.0000,0.0000,-11630.0000,5330.0000,23923.0000,1607234021.596000,2020-12-05 21:53:41.595999
90.000,-60635.6523,-51661.6953,-21080.6230,-11144.9375,-53219.2539,-16743.8926,-8239.2998,-17551.5723,0.0000,-10016.1738,-510.9385,0.0000,-24081.2090,-34428.5469,-20034.2031,-26833.3359,0.0041,0.9927,0.0062,192.0000,0.0000,16.0000,15.5000,8.0000,0.0000,32.0000,-11630.0000,5330.0000,23923.0000,1607234021.602800,2020-12-05 21:53:41.602799
92.000,-60734.3125,-51752.7148,-21037.3047,-10995.1807,-53178.3516,-16424.7324,-8188.2485,-17347.3887,0.0000,-9787.7168,-513.9560,0.0000,-24191.2480,-34312.1172,-20107.0469,-26849.4277,0.0041,0.9927,0.0062,192.0000,0.0000,0.0000,0.0000,0.0000,0.0000,0.0000,-11630.0000,5330.0000,23923.0000,1607234021.609600,2020-12-05 21:53:41.609600
94.000,-60645.9141,-51681.2539,-21071.5703,-11155.9785,-53220.8438,-16738.3945,-8236.2148,-17536.9551,0.0000,-9965.9053,-502.4672,0.0000,-24060.8926,-34381.1836,-20024.9277,-26810.2910,0.0041,0.9927,0.0062,192.0000,0.0000,0.0000,0.0000,0.0000,0.0000,0.0000,-11630.0000,5330.0000,23923.0000,1607234021.616400,2020-12-05 21:53:41.616400
96.000,-60733.5977,-51749.2500,-21042.8711,-10985.8818,-53186.8672,-16420.5977,-8183.4653,-17344.1934,0.0000,-9834.9463,-517.8452,0.0000,-24178.5078,-34341.5078,-20110.6465,-26869.1426,0.0041,0.9927,0.0062,192.0000,0.0000,0.0000,0.0000,0.0000,0.0000,0.0000,-11630.0000,5330.0000,23923.0000,1607234021.623200,2020-12-05 21:53:41.623199
98.000,-60653.0000,-51693.1445,-21067.2559,-11155.8447,-53210.2930,-16717.6738,-8211.4941,-17510.5352,0.0000,-9888.5010,-496.8122,0.0000,-24061.6738,-34304.6953,-20008.1406,-26779.4902,0.0041,0.9927,0.0062,192.0000,0.0000,0.0000,0.0000,0.0000,0.0000,0.0000,-11630.0000,5330.0000,23923.0000,1607234021.630000,2020-12-05 21:53:41.629999
100.000,-60708.4297,-51718.2461,-21049.3516,-10979.8027,-53199.4727,-16443.0605,-8202.5088,-17371.0605,0.0000,-9903.0068,-531.6586,0.0000,-24188.7227,-34408.5859,-20118.5586,-26893.3281,0.0031,0.9903,0.0081,192.0000,0.0000,8.0000,15.0000,112.0000,0.0000,40.0000,-11630.0000,5330.0000,23923.0000,1607234021.636800,2020-12-05 21:53:41.636800
102.000,-60648.7969,-51687.9141,-21061.7129,-11133.1133,-53199.2070,-16691.0527,-8194.3281,-17479.2422,0.0000,-9811.0742,-485.9269,0.0000,-24077.5215,-34258.5625,-20001.1895,-26757.1836,0.0031,0.9903,0.0081,192.0000,0.0000,0.0000,0.0000,0.0000,0.0000,0.0000,-11630.0000,5330.0000,23923.0000,1607234021.643600,2020-12-05 21:53:41.643599
104.000,-60693.1211,-51694.9336,-21037.4160,-10970.1016,-53209.6680,-16457.1426,-8198.2393,-17368.0195,0.0000,-9953.9912,-528.9093,0.0000,-24187.2012,-34449.8477,-20104.3652,-26900.9277,0.0031,0.9903,0.0081,192.0000,0.0000,0.0000,0.0000,0.0000,0.0000,0.0000,-11630.0000,5330.0000,23923.0000,1607234021.650400,2020-12-05 21:53:41.650399
106.000,-60647.0977,-51686.6406,-21056.0137,-11115.4775,-53196.5703,-16654.0840,-8184.2920,-17444.9102,0.0000,-9735.6592,-451.6170,0.0000,-24030.1133,-34194.3008,-19996.6074,-26735.5020,0.0031,0.9903,0.0081,192.0000,0.0000,0.0000,0.0000,0.0000,0.0000,0.0000,-11630.0000,5330.0000,23923.0000,1607234021.657200,2020-12-05 21:53:41.657199
108.000,-60703.9609,-51701.0117,-21041.5957,-10983.6025,-53225.3359,-16486.3340,-8208.5664,-17380.5586,0.0000,-10006.3389,-547.8412,0.0000,-24203.5195,-34493.2773,-20112.1211,-26913.0859,0.0031,0.9903,0.0081,192.0000,0.0000,0.0000,0.0000,0.0000,0.0000,0.0000,-11630.0000,5330.0000,23923.0000,1607234021.664000,2020-12-05 21:53:41.664000
110.000,-60680.0664,-51726.5156,-21058.0020,-11118.5176,-53182.2188,-16619.7051,-8159.6606,-17409.8848,0.0000,-9715.6543,-466.0338,0.0000,-24041.8027,-34179.2578,-19998.5742,-26727.5215,0.0031,0.9903,0.0081,192.0000,0.0000,0.0000,0.0000,0.0000,0.0000,0.0000,-11630.0000,5330.0000,23923.0000,1607234021.670800,2020-12-05 21:53:41.670799
112.000,-60694.5273,-51698.0859,-21059.1641,-11010.0215,-53235.0156,-16526.9238,-8209.5273,-17404.5879,0.0000,-10079.4961,-568.2931,0.0000,-24203.4961,-34543.1211,-20107.3613,-26927.0117,0.0060,0.9800,0.0020,192.0000,0.0000,24.0000,15.0000,80.0000,0.0000,8.0000,-11630.0000,5330.0000,23923.0000,1607234021.677600,2020-12-05 21:53:41.677599
114.000,-60684.9844,-51734.4063,-21061.6016,-11099.0713,-53183.0664,-16571.8965,-8147.2778,-17385.0527,0.0000,-9657.5850,-466.9056,0.0000,-24051.7949,-34137.0586,-20002.5762,-26721.8457,0.0060,0.9800,0.0020,192.0000,0.0000,0.0000,0.0000,0.0000,0.0000,0.0000,-11630.0000,5330.0000,23923.0000,1607234021.684400,2020-12-05 21:53:41.684399
116.000,-60658.6992,-51670.5938,-21060.8867,-11033.0889,-53246.0547,-16568.0059,-8219.2949,-17441.1328,0.0000,-10095.9023,-568.6284,0.0000,-24201.5078,-34553.0234,-20100.5215,-26921.5801,0.0060,0.9800,0.0020,192.0000,0.0000,0.0000,0.0000,0.0000,0.0000,0.0000,-11630.0000,5330.0000,23923.0000,1607234021.691200,2020-12-05 21:53:41.691200
118.000,-60699.9141,-51755.4844,-21059.2324,-11090.8008,-53188.0547,-16528.9141,-8138.9404,-17355.1230,0.0000,-9635.7471,-470.4371,0.0000,-24068.1563,-34131.7148,-20011.2930,-26724.3711,0.0060,0.9800,0.0020,192.0000,0.0000,0.0000,0.0000,0.0000,0.0000,0.0000,-11630.0000,5330.0000,23923.0000,1607234021.698000,2020-12-05 21:53:41.697999
120.000,-60655.3438,-51671.8906,-21082.2324,-11068.7178,-53267.3125,-16614.7441,-8235.9697,-17467.9551,0.0000,-10123.4404,-576.4738,0.0000,-24182.4863,-34557.8516,-20087.3555,-26919.9922,0.0060,0.9800,0.0020,192.0000,0.0000,0.0000,0.0000,0.0000,0.0000,0.0000,-11630.0000,5330.0000,23923.0000,1607234021.704310,2020-12-05 21:53:41.704312
122.000,-60685.8555,-51745.7188,-21036.6113,-11061.0957,-53161.7656,-16487.6074,-8132.5029,-17346.5840,0.0000,-9613.3057,-460.6024,0.0000,-24079.9355,-34125.9727,-20022.5137,-26740.9551,0.0080,0.9980,-0.0040,192.0000,0.0000,32.0000,15.5000,24.0000,127.5000,112.0000,-11630.0000,5330.0000,23923.0000,1607234021.710620,2020-12-05 21:53:41.710624
124.000,-60635.9453,-51664.0664,-21064.8652,-11085.5039,-53242.2109,-16654.3281,-8225.1289,-17503.0684,0.0000,-10115.4600,-556.4690,0.0000,-24144.7773,-34540.5508,-20062.1426,-26907.5664,0.0080,0.9980,-0.0040,192.0000,0.0000,0.0000,0.0000,0.0000,0.0000,0.0000,-11630.0000,5330.0000,23923.0000,1607234021.716940,2020-12-05 21:53:41.716937
126.000,-60687.5547,-51748.3086,-21034.6895,-11042.8564,-53165.2969,-16463.6680,-8136.4595,-17343.2539,0.0000,-9616.3906,-460.8259,0.0000,-24087.2891,-34148.5469,-20036.6172,-26766.9512,0.0080,0.9980,-0.0040,192.0000,0.0000,0.0000,0.0000,0.0000,0.0000,0.0000,-11630.0000,5330.0000,23923.0000,1607234021.723250,2020-12-05 21:53:41.723249
128.000,-60621.1484,-51656.8008,-21065.2227,-11110.7832,-53244.0664,-16698.1836,-8232.7510,-17520.9063,0.0000,-10092.2373,-537.0900,0.0000,-24113.5078,-34513.5742,-20047.2109,-26890.9805,0.0080,0.9980,-0.0040,192.0000,0.0000,0.0000,0.0000,0.0000,0.0000,0.0000,-11630.0000,5330.0000,23923.0000,1607234021.729560,2020-12-05 21:53:41.729562
130.000,-60700.0508,-51753.5391,-21042.1992,-11024.4834,-53162.6602,-16441.9199,-8140.4829,-17334.1348,0.0000,-9651.7285,-474.3934,0.0000,-24112.1660,-34181.2266,-20070.4570,-26797.9082,0.0080,0.9980,-0.0040,192.0000,0.0000,0.0000,0.0000,0.0000,0.0000,0.0000,-11630.0000,5330.0000,23923.0000,1607234021.735870,2020-12-05 21:53:41.735874
132.000,-60618.2422,-51661.8984,-21073.9844,-11130.6543,-53232.1992,-16718.2773,-8228.5488,-17530.6738,0.0000,-10061.2354,-533.5138,0.0000,-24106.9141,-34491.1328,-20040.3730,-26872.7188,0.0100,0.9900,-0.0060,192.0000,0.0000,40.0000,15.0000,120.0000,127.5000,104.0000,-11630.0000,5330.0000,23923.0000,1607234021.742190,2020-12-05 21:53:41.742187
134.000,-60706.3984,-51756.1563,-21045.6191,-11001.1260,-53167.6680,-16416.2832,-8137.8896,-17315.0020,0.0000,-9684.6309,-478.4614,0.0000,-24107.1816,-34198.7695,-20055.2578,-26808.9492,0.0100,0.9900,-0.0060,192.0000,0.0000,0.0000,0.0000,0.0000,0.0000,0.0000,-11630.0000,5330.0000,23923.0000,1607234021.748500,2020-12-05 21:53:41.748499
136.000,-60617.5469,-51667.5078,-21082.4766,-11140.0869,-53247.4180,-16721.6074,-8216.1885,-17516.9492,0.0000,-10009.7363,-523.7237,0.0000,-24068.6035,-34414.6875,-19992.1602,-26838.7891,0.0100,0.9900,-0.0060,192.0000,0.0000,0.0000,0.0000,0.0000,0.0000,0.0000,-11630.0000,5330.0000,23923.0000,1607234021.754810,2020-12-05 21:53:41.754812
138.000,-60698.6641,-51752.5117,-21049.3301,-11002.4004,-53191.2500,-16411.3652,-8156.1064,-17334.9609,0.0000,-9747.7295,-498.6227,0.0000,-24133.7148,-34267.7695,-20045.6250,-26838.3652,0.0100,0.9900,-0.0060,192.0000,0.0000,0.0000,0.0000,0.0000,0.0000,0.0000,-11630.0000,5330.0000,23923.0000,1607234021.761130,2020-12-05 21:53:41.761125
140.000,-60614.3320,-51680.9883,-21095.2852,-11182.3311,-53236.6250,-16733.3418,-8219.1162,-17533.2441,0.0000,-9955.2881,-516.0123,0.0000,-24072.2246,-34384.4688,-19974.8359,-26827.5020,0.0100,0.9900,-0.0060,192.0000,0.0000,0.0000,0.0000,0.0000,0.0000,0.0000,-11630.0000,5330.0000,23923.0000,1607234021.767440,2020-12-05 21:53:41.767437
142.000,-60676.8477,-51729.4688,-21051.2305,-11007.2725,-53201.3750,-16422.9668,-8168.8472,-17342.5176,0.0000,-9794.8916,-510.9385,0.0000,-24146.5000,-34318.7539,-20055.2813,-26876.0938,0.0020,0.9820,-0.0140,192.0000,0.0000,8.0000,15.0000,88.0000,127.5000,72.0000,-11630.0000,5330.0000,23923.0000,1607234021.773750,2020-12-05 21:53:41.773750
144.000,-60600.5625,-51687.1992,-21074.3633,-11167.5566,-53219.2344,-16712.1973,-8195.5352,-17504.3438,0.0000,-9896.7490,-497.9745,0.0000,-24042.1621,-34320.4531,-19961.2461,-26793.9063,0.0020,0.9820,-0.0140,192.0000,0.0000,0.0000,0.0000,0.0000,0.0000,0.0000,-11630.0000,5330.0000,23923.0000,1607234021.780060,2020-12-05 21:53:41.780062
146.000,-60670.0078,-51734.0039,-21058.0254,-11010.2451,-53201.2852,-16434.0742,-8182.5708,-17353.2910,0.0000,-9880.7676,-527.5458,0.0000,-24165.9238,-34399.2422,-20061.7637,-26886.2637,0.0020,0.9820,-0.0140,192.0000,0.0000,0.0000,0.0000,0.0000,0.0000,0.0000,-11630.0000,5330.0000,23923.0000,1607234021.786380,2020-12-05 21:53:41.786375
148.000,-60602.2617,-51697.5039,-21060.8184,-11158.6611,-53200.2344,-16699.8809,-8190.0366,-17469.9883,0.0000,-9836.3984,-477.1874,0.0000,-24027.0742,-34286.3906,-19947.8574,-26766.2363,0.0020,0.9820,-0.0140,192.0000,0.0000,0.0000,0.0000,0.0000,0.0000,0.0000,-11630.0000,5330.0000,23923.0000,1607234021.792690,2020-12-05 21:53:41.792687
150.000,-60673.7617,-51740.0391,-21052.6602,-11016.4814,-53223.6133,-16464.2500,-8200.5869,-17355.2793,0.0000,-9937.8984,-544.4438,0.0000,-24180.8984,-34451.1211,-20064.5352,-26915.4551,0.0020,0.9820,-0.0140,192.0000,0.0000,0.0000,0.0000,0.0000,0.0000,0.0000,-11630.0000,5330.0000,23923.0000,1607234021.799000,2020-12-05 21:53:41.799000
152.000,-60605.2773,-51696.2305,-21049.9336,-11160.8066,-53199.2070,-16665.1914,-8173.8315,-17423.8555,0.0000,-9763.6885,-473.7899,0.0000,-24015.8535,-34231.4727,-19935.8555,-26760.3340,0.0040,0.9900,-0.0180,192.0000,0.0000,16.0000,15.0000,120.0000,127.5000,56.0000,-11630.0000,5330.0000,23923.0000,1607234021.813570,2020-12-05 21:53:41.813571
154.000,-60658.8086,-51709.6641,-21060.6172,-11008.0771,-53235.1484,-16487.9863,-8205.1240,-17342.7402,0.0000,-9972.8115,-548.7130,0.0000,-24199.5176,-34482.7734,-20052.7559,-26921.6465,0.0040,0.9900,-0.0180,192.0000,0.0000,0.0000,0.0000,0.0000,0.0000,0.0000,-11630.0000,5330.0000,23923.0000,1607234021.828140,2020-12-05 21:53:41.828142
156.000,-60625.5938,-51718.7617,-21058.2266,-11149.4971,-53193.0156,-16643.2656,-8175.3066,-17387.6230,0.0000,-9705.1270,-463.8881,0.0000,-24010.5781,-34182.8789,-19942.1133,-26744.5313,0.0040,0.9900,-0.0180,192.0000,0.0000,0.0000,0.0000,0.0000,0.0000,0.0000,-11630.0000,5330.0000,23923.0000,1607234021.842710,2020-12-05 21:53:41.842714
158.000,-60664.5781,-51713.7305,-21077.3594,-11052.6689,-53254.9531,-16539.0840,-8236.7295,-17380.1563,0.0000,-10042.1914,-575.8033,0.0000,-24206.6934,-34556.3320,-20063.7969,-26953.7441,0.0040,0.9900,-0.0180,192.0000,0.0000,0.0000,0.0000,0.0000,0.0000,0.0000,-11630.0000,5330.0000,23923.0000,1607234021.857290,2020-12-05 21:53:41.857285
160.000,-60630.9609,-51729.7578,-21053.5547,-11131.1904,-53193.0820,-16606.3613,-8174.1221,-17365.6055,0.0000,-9677.1650,-466.5032,0.0000,-24034.6953,-34214.1719,-19958.1621,-26748.7109,0.0040,0.9900,-0.0180,192.0000,0.0000,0.0000,0.0000,0.0000,0.0000,0.0000,-11630.0000,5330.0000,23923.0000,1607234021.871860,2020-12-05 21:53:41.871857
162.000,-60632.9922,-51683.3789,-21079.3711,-11056.8936,-53255.9805,-16588.2578,-8239.2773,-17412.5000,0.0000,-10059.3125,-565.9238,0.0000,-24193.0801,-34563.2617,-20050.5879,-26950.1680,-0.0020,0.9920,-0.0200,192.0000,127.5000,120.0000,15.5000,0.0000,127.5000,48.0000,-11630.0000,5330.0000,23923.0000,1607234021.886430,2020-12-05 21:53:41.886428
164.000,-60637.7539,-51734.1836,-21059.9023,-11114.3594,-53178.2422,-16572.2754,-8172.8032,-17357.8047,0.0000,-9612.3008,-458.9930,0.0000,-24058.0762,-34156.8633,-19958.6328,-26758.0332,-0.0020,0.9920,-0.0200,192.0000,0.0000,0.0000,0.0000,0.0000,0.0000,0.0000,-11630.0000,5330.0000,23923.0000,1607234021.901000,2020-12-05 21:53:41.901000
166.000,-60617.1914,-51673.8125,-21092.0664,-11096.4336,-53257.6563,-16632.8496,-8252.2637,-17459.4395,0.0000,-10106.1396,-566.0803,0.0000,-24187.3359,-34616.9961,-20041.0645,-26950.4355,-0.0020,0.9920,-0.0200,192.0000,0.0000,0.0000,0.0000,0.0000,0.0000,0.0000,-11630.0000,5330.0000,23923.0000,1607234021.907730,2020-12-05 21:53:41.907733
168.000,-60653.1328,-51752.7344,-21079.7949,-11091.4043,-53188.7695,-16543.9336,-8184.7837,-17376.6699,0.0000,-9612.5234,-467.8444,0.0000,-24076.3828,-34186.8594,-19988.5391,-26772.8516,-0.0020,0.9920,-0.0200,192.0000,0.0000,0.0000,0.0000,0.0000,0.0000,0.0000,-11630.0000,5330.0000,23923.0000,1607234021.914470,2020-12-05 21:53:41.914466
170.000,-60600.6719,-51669.2500,-21085.5840,-11101.9326,-53274.3984,-16676.9492,-8262.2100,-17498.7324,0.0000,-10108.4863,-572.4282,0.0000,-24183.2676,-34624.1016,-20047.6367,-26948.0215,-0.0020,0.9920,-0.0200,192.0000,0.0000,0.0000,0.0000,0.0000,0.0000,0.0000,-11630.0000,5330.0000,23923.0000,1607234021.921200,2020-12-05 21:53:41.921200
172.000,-60657.1797,-51756.8711,-21043.6973,-11085.6152,-53186.7578,-16507.5000,-8171.5962,-17359.0117,0.0000,-9629.3320,-451.9076,0.0000,-24058.9473,-34237.5273,-19995.7813,-26790.1523,-0.0100,0.9840,-0.0260,192.0000,127.5000,88.0000,15.0000,96.0000,127.5000,24.0000,-11630.0000,5330.0000,23923.0000,1607234021.927930,2020-12-05 21:53:41.927933
174.000,-60593.6563,-51661.5859,-21090.7480,-11130.0957,-53283.3164,-16718.7246,-8274.0791,-17544.8008,0.0000,-10076.5908,-550.0541,0.0000,-24118.4258,-34623.0313,-20024.6582,-26932.0176,-0.0100,0.9840,-0.0260,192.0000,0.0000,0.0000,0.0000,0.0000,0.0000,0.0000,-11630.0000,5330.0000,23923.0000,1607234021.934670,2020-12-05 21:53:41.934666
176.000,-60651.8125,-51739.0117,-21048.1445,-11058.3691,-53181.4375,-16486.7793,-8173.0269,-17370.0547,0.0000,-9616.1221,-480.8754,0.0000,-24114.0000,-34259.0078,-20020.8809,-26823.1426,-0.0100,0.9840,-0.0260,192.0000,0.0000,0.0000,0.0000,0.0000,0.0000,0.0000,-11630.0000,5330.0000,23923.0000,1607234021.941400,2020-12-05 21:53:41.941400
178.000,-60604.7422,-51684.2266,-21105.1191,-11168.4063,-53280.9688,-16759.1367,-8275.1963,-17573.1875,0.0000,-10058.2402,-543.5944,0.0000,-24107.8535,-34587.8242,-20006.1289,-26912.1699,-0.0100,0.9840,-0.0260,192.0000,0.0000,0.0000,0.0000,0.0000,0.0000,0.0000,-11630.0000,5330.0000,23923.0000,1607234021.948130,2020-12-05 21:53:41.948133
180.000,-60668.0195,-51760.1133,-21055.5215,-11050.6572,-53197.7305,-16471.7383,-8174.7700,-17369.5625,0.0000,-9689.1455,-499.5168,0.0000,-24132.5742,-34341.0391,-20045.4453,-26857.2285,-0.0100,0.9840,-0.0260,192.0000,0.0000,0.0000,0.0000,0.0000,0.0000,0.0000,-11630.0000,5330.0000,23923.0000,1607234021.954870,2020-12-05 21:53:41.954866
182.000,-60582.9258,-51673.1875,-21098.2578,-11192.2783,-53245.9453,-16766.7363,-8248.0840,-17570.3477,0.0000,-9998.0020,-528.1717,0.0000,-24079.4219,-34583.3984,-19977.3184,-26874.8418,-0.0100,0.9900,-0.0260,192.0000,127.5000,88.0000,15.0000,120.0000,127.5000,24.0000,-11630.0000,5330.0000,23923.0000,1607234021.961600,2020-12-05 21:53:41.961600
184.000,-60689.8125,-51773.3008,-21078.2969,-11042.5439,-53202.0664,-16470.5078,-8200.6309,-17390.6621,0.0000,-9700.8135,-520.6168,0.0000,-24174.4844,-34404.2070,-20055.7734,-26872.8984,-0.0100,0.9900,-0.0260,192.0000,0.0000,0.0000,0.0000,0.0000,0.0000,0.0000,-11630.0000,5330.0000,23923.0000,1607234021.968330,2020-12-05 21:53:41.968333
186.000,-60595.5977,-51691.4258,-21090.9043,-11207.4551,-53228.9805,-16784.0801,-8232.5723,-17568.6270,0.0000,-9955.9805,-532.3068,0.0000,-24077.7227,-34580.1797,-19980.7148,-26865.4766,-0.0100,0.9900,-0.0260,192.0000,0.0000,0.0000,0.0000,0.0000,0.0000,0.0000,-11630.0000,5330.0000,23923.0000,1607234021.975070,2020-12-05 21:53:41.975066
188.000,-60683.5078,-51762.9727,-21068.2852,-11046.0303,-53186.7578,-16464.8750,-8174.1890,-17380.5586,0.0000,-9773.1885,-528.1940,0.0000,-24161.6758,-34521.1719,-20053.7832,-26902.1113,-0.0100,0.9900,-0.0260,192.0000,0.0000,0.0000,0.0000,0.0000,0.0000,0.0000,-11630.0000,5330.0000,23923.0000,1607234021.981800,2020-12-05 21:53:41.981800
190.000,-60594.9961,-51698.7344,-21112.4512,-11186.0420,-53216.2383,-16768.3672,-8204.7666,-17553.3379,0.0000,-9872.0723,-519.8121,0.0000,-24049.6484,-34520.9922,-19963.7949,-26833.6484,-0.0100,0.9900,-0.0260,192.0000,0.0000,0.0000,0.0000,0.0000,0.0000,0.0000,-11630.0000,5330.0000,23923.0000,1607234021.988530,2020-12-05 21:53:41.988533
192.000,-60668.2656,-51752.0664,-21075.8398,-11046.6787,-53182.5078,-16475.6934,-8177.0278,-17391.6230,0.0000,-9818.5625,-542.9686,0.0000,-24171.3770,-34567.8672,-20059.8848,-26916.8633,-0.0060,0.9960,-0.0200,192.0000,127.5000,104.0000,15.5000,16.0000,127.5000,48.0000,-11630.0000,5330.0000,23923.0000,1607234021.995270,2020-12-05 21:53:41.995266
194.000,-60589.7227,-51706.4688,-21088.7813,-11203.1406,-53195.9883,-16759.8965,-8205.4365,-17555.8203,0.0000,-9830.9678,-511.5644,0.0000,-24032.1035,-34565.3164,-19965.0020,-26824.4395,-0.0060,0.9960,-0.0200,192.0000,0.0000,0.0000,0.0000,0.0000,0.0000,0.0000,-11630.0000,5330.0000,23923.0000,1607234022.002000,2020-12-05 21:53:42.002000
196.000,-60675.4844,-51762.9727,-21086.7461,-11059.2627,-53209.2422,-16514.4961,-8191.8691,-17428.8164,0.0000,-9903.1416,-569.7906,0.0000,-24178.5957,-34665.1641,-20079.1309,-26949.0957,-0.0060,0.9960,-0.0200,192.0000,0.0000,0.0000,0.0000,0.0000,0.0000,0.0000,-11630.0000,5330.0000,23923.0000,1607234022.008800,2020-12-05 21:53:42.008800
198.000,-60603.7578,-51732.7539,-21086.4336,-11212.0371,-53170.6406,-16732.4258,-8166.2988,-17519.4082,0.0000,-9718.5830,-499.2709,0.0000,-24006.3535,-34471.9102,-19958.4082,-26799.7852,-0.0060,0.9960,-0.0200,192.0000,0.0000,0.0000,0.0000,0.0000,0.0000,0.0000,-11630.0000,5330.0000,23923.0000,1607234022.015600,2020-12-05 21:53:42.015600
200.000,-60654.6289,-51740.8008,-21081.9180,-11072.1377,-53209.4648,-16536.2227,-8194.7305,-17442.5410,0.0000,-9930.3877,-570.1707,0.0000,-24164.3809,-34765.6133,-20067.7090,-26963.2891,-0.0060,0.9960,-0.0200,192.0000,0.0000,0.0000,0.0000,0.0000,0.0000,0.0000,-11630.0000,5330.0000,23923.0000,1607234022.022400,2020-12-05 21:53:42.022400
202.000,-60608.3398,-51736.8203,-21088.1328,-11197.6875,-53159.6211,-16710.0742,-8155.2124,-17507.7637,0.0000,-9681.2773,-484.5411,0.0000,-24010.6230,-34472.0430,-19950.1387,-26781.9492,-0.0070,0.9920,-0.0200,192.0000,127.5000,96.0000,15.0000,112.0000,127.5000,48.0000,-11630.0000,5330.0000,23923.0000,1607234022.029200,2020-12-05 21:53:42.029200
204.000,-60634.6016,-51717.5313,-21094.3457,-11074.2158,-53217.0000,-16587.5195,-8214.7354,-17485.5234,0.0000,-10027.9082,-575.3339,0.0000,-24154.2324,-34814.4727,-20072.6250,-26974.8887,-0.0070,0.9920,-0.0200,192.0000,0.0000,0.0000,0.0000,0.0000,0.0000,0.0000,-11630.0000,5330.0000,23923.0000,1607234022.036000,2020-12-05 21:53:42.036000
206.000,-60622.3750,-51751.0586,-21088.8926,-11214.7188,-53142.0547,-16667.5840,-8150.0044,-17482.8633,0.0000,-9648.5996,-485.5469,0.0000,-24016.9492,-34528.7070,-19973.5176,-26781.6348,-0.0070,0.9920,-0.0200,192.0000,0.0000,0.0000,0.0000,0.0000,0.0000,0.0000,-11630.0000,5330.0000,23923.0000,1607234022.042800,2020-12-05 21:53:42.042800
208.000,-60639.5859,-51712.9063,-21090.3008,-11084.5205,-53210.0469,-16609.7148,-8202.3301,-17491.2012,0.0000,-10042.9512,-575.1327,0.0000,-24145.4492,-34875.5820,-20060.6680,-26974.7773,-0.0070,0.9920,-0.0200,192.0000,0.0000,0.0000,0.0000,0.0000,0.0000,0.0000,-11630.0000,5330.0000,23923.0000,1607234022.049600,2020-12-05 21:53:42.049600
210.000,-60645.2656,-51759.2188,-21091.0156,-11160.2031,-53147.7539,-16619.8398,-8136.8843,-17443.6367,0.0000,-9604.0527,-474.6169,0.0000,-24018.1113,-34455.3242,-19977.6758,-26769.1191,-0.0070,0.9920,-0.0200,192.0000,0.0000,0.0000,0.0000,0.0000,0.0000,0.0000,-11630.0000,5330.0000,23923.0000,1607234022.056400,2020-12-05 21:53:42.056400
212.000,-60639.6992,-51703.2266,-21106.0801,-11129.7158,-53235.3047,-16661.2363,-8229.2861,-17528.0371,0.0000,-10069.4160,-584.6993,0.0000,-24158.9492,-34912.2148,-20069.8984,-26968.5859,-0.0095,0.9890,-0.0190,192.0000,127.5000,80.0000,15.0000,104.0000,127.5000,56.0000,-11630.0000,5330.0000,23923.0000,1607234022.063200,2020-12-05 21:53:42.063199
214.000,-60660.2852,-51783.2227,-21078.3867,-11148.0889,-53157.3633,-16578.5332,-8158.6323,-17430.8965,0.0000,-9600.1631,-478.0367,0.0000,-24059.4160,-34495.4688,-20006.9785,-26792.3418,-0.0095,0.9890,-0.0190,192.0000,0.0000,0.0000,0.0000,0.0000,0.0000,0.0000,-11630.0000,5330.0000,23923.0000,1607234022.070000,2020-12-05 21:53:42.070000
216.000,-60630.4219,-51703.4961,-21116.9219,-11154.5039,-53262.6641,-16694.4941,-8266.9932,-17561.2285,0.0000,-10193.1553,-584.9675,0.0000,-24165.5215,-34958.2617,-20066.8359,-26961.0762,-0.0095,0.9890,-0.0190,192.0000,0.0000,0.0000,0.0000,0.0000,0.0000,0.0000,-11630.0000,5330.0000,23923.0000,1607234022.076800,2020-12-05 21:53:42.076800
218.000,-60657.6484,-51770.6406,-21072.8223,-11102.9160,-53163.7773,-16560.7871,-8197.2783,-17444.1270,0.0000,-9583.9580,-489.5255,0.0000,-24124.1484,-34578.9297,-20041.8477,-26813.5547,-0.0095,0.9890,-0.0190,192.0000,0.0000,0.0000,0.0000,0.0000,0.0000,0.0000,-11630.0000,5330.0000,23923.0000,1607234022.083600,2020-12-05 21:53:42.083600
220.000,-60609.7695,-51692.5664,-21107.2871,-11154.1240,-53254.9531,-16760.2754,-8307.7412,-17603.0488,0.0000,-10091.0078,-570.7518,0.0000,-24179.9160,-34972.6797,-20059.9961,-26955.1973,-0.0095,0.9890,-0.0190,192.0000,0.0000,0.0000,0.0000,0.0000,0.0000,0.0000,-11630.0000,5330.0000,23923.0000,1607234022.090400,2020-12-05 21:53:42.090399
222.000,-60651.9922,-51762.5039,-21081.4277,-11080.2285,-53183.9844,-16542.2344,-8244.5078,-17453.3594,0.0000,-9658.9033,-502.9589,0.0000,-24205.1953,-34578.0586,-20073.2520,-26844.0410,-0.0108,0.9895,-0.0235,192.0000,127.5000,80.0000,15.0000,120.0000,127.5000,16.0000,-11630.0000,5330.0000,23923.0000,1607234022.097200,2020-12-05 21:53:42.097200
224.000,-60600.6289,-51687.9141,-21115.0000,-11219.9941,-53273.0117,-16800.5762,-8343.0117,-17634.6992,0.0000,-10142.1035,-564.8956,0.0000,-24203.5410,-34961.9258,-20069.8984,-26948.0449,-0.0108,0.9895,-0.0235,192.0000,0.0000,0.0000,0.0000,0.0000,0.0000,0.0000,-11630.0000,5330.0000,23923.0000,1607234022.104000,2020-12-05 21:53:42.104000
226.000,-60666.0078,-51772.4492,-21067.1660,-11095.3164,-53182.4883,-16529.0254,-8264.8252,-17446.7422,0.0000,-9762.2803,-520.6168,0.0000,-24242.5664,-34743.6836,-20100.2070,-26880.4082,-0.0108,0.9895,-0.0235,192.0000,0.0000,0.0000,0.0000,0.0000,0.0000,0.0000,-11630.0000,5330.0000,23923.0000,1607234022.110800,2020-12-05 21:53:42.110800
228.000,-60585.2969,-51680.8281,-21108.1152,-11207.7451,-53248.2461,-16816.8262,-8353.1592,-17651.3066,0.0000,-10117.4717,-551.3951,0.0000,-24203.3848,-34935.6641,-20050.2070,-26921.1563,-0.0108,0.9895,-0.0235,192.0000,0.0000,0.0000,0.0000,0.0000,0.0000,0.0000,-11630.0000,5330.0000,23923.0000,1607234022.117600,2020-12-05 21:53:42.117600
230.000,-60681.9219,-51785.0781,-21078.4766,-11069.5889,-53184.3867,-16520.0391,-8279.3096,-17455.3711,0.0000,-9767.9580,-532.2621,0.0000,-24277.7480,-34811.7227,-20110.8926,-26895.0254,-0.0108,0.9895,-0.0235,192.0000,0.0000,0.0000,0.0000,0.0000,0.0000,0.0000,-11630.0000,5330.0000,23923.0000,1607234022.124400,2020-12-05 21:53:42.124400
232.000,-60598.0586,-51691.6484,-21120.2305,-11195.4971,-53242.6797,-16818.8594,-8344.5322,-17637.3145,0.0000,-10104.1279,-548.3106,0.0000,-24198.6680,-34878.1953,-20040.1270,-26894.9141,-0.0134,0.9948,-0.0258,192.0000,127.5000,64.0000,15.5000,32.0000,127.5000,16.0000,-11630.0000,5330.0000,23923.0000,1607234022.131200,2020-12-05 21:53:42.131200
234.000,-60681.8320,-51771.9375,-21076.5098,-11071.0195,-53195.7656,-16499.8340,-8288.2725,-17448.6660,0.0000,-9922.9668,-544.0861,0.0000,-24292.3887,-34829.7383,-20118.9609,-26897.6191,-0.0134,0.9948,-0.0258,192.0000,0.0000,0.0000,0.0000,0.0000,0.0000,0.0000,-11630.0000,5330.0000,23923.0000,1607234022.138000,2020-12-05 21:53:42.138000
236.000,-60599.1758,-51693.3008,-21102.2148,-11233.8525,-53220.7969,-16803.9746,-8329.6230,-17614.6484,0.0000,-10021.7393,-523.4555,0.0000,-24166.4375,-34858.7070,-20014.0645,-26845.7637,-0.0134,0.9948,-0.0258,192.0000,0.0000,0.0000,0.0000,0.0000,0.0000,0.0000,-11630.0000,5330.0000,23923.0000,1607234022.144800,2020-12-05 21:53:42.144800
238.000,-60667.8398,-51738.7227,-21059.2539,-11010.8262,-53190.5781,-16488.6133,-8296.5205,-17443.0332,0.0000,-9955.0195,-542.0074,0.0000,-24288.7461,-34868.5859,-20107.8066,-26919.5020,-0.0134,0.9948,-0.0258,192.0000,0.0000,0.0000,0.0000,0.0000,0.0000,0.0000,-11630.0000,5330.0000,23923.0000,1607234022.151600,2020-12-05 21:53:42.151600
240.000,-60596.9414,-51706.3555,-21087.5957,-11211.7686,-53183.3125,-16780.7949,-8306.7793,-17600.0313,0.0000,-10029.6963,-495.3370,0.0000,-24134.9648,-34797.5313,-19992.3613,-26805.6641,-0.0134,0.9948,-0.0258,192.0000,0.0000,0.0000,0.0000,0.0000,0.0000,0.0000,-11630.0000,5330.0000,23923.0000,1607234022.158400,2020-12-05 21:53:42.158400
242.000,-60679.7109,-51756.0664,-21083.0586,-11074.3057,-53198.6250,-16534.0762,-8310.1992,-17477.3203,0.0000,-10090.2480,-564.2921,0.0000,-24288.2324,-34991.7656,-20112.2324,-26943.2617,-0.0107,1.0004,-0.0269,192.0000,127.5000,96.0000,15.5000,56.0000,127.5000,16.0000,-11630.0000,5330.0000,23923.0000,1607234022.165200,2020-12-05 21:53:42.165199
244.000,-60609.7930,-51714.3359,-21090.7695,-11193.1270,-53170.3281,-16747.7363,-8297.0342,-17567.3301,0.0000,-9983.7188,-502.4225,0.0000,-24119.4980,-34798.9844,-19993.7910,-26796.9473,-0.0107,1.0004,-0.0269,192.0000,0.0000,0.0000,0.0000,0.0000,0.0000,0.0000,-11630.0000,5330.0000,23923.0000,1607234022.172000,2020-12-05 21:53:42.172000
246.000,-60671.5742,-51744.7578,-21086.9922,-11058.7715,-53194.1992,-16538.6133,-8299.1582,-17473.2969,0.0000,-10213.7412,-567.8461,0.0000,-24272.4297,-34978.1328,-20093.8594,-26939.7520,-0.0107,1.0004,-0.0269,192.0000,0.0000,0.0000,0.0000,0.0000,0.0000,0.0000,-11630.0000,5330.0000,23923.0000,1607234022.178800,2020-12-05 21:53:42.178800
248.000,-60629.3945,-51742.6563,-21090.9492,-11202.4033,-53144.2227,-16729.0508,-8263.6855,-17534.8535,0.0000,-9968.0059,-489.3244,0.0000,-24100.7676,-34742.2109,-19974.8359,-26780.2285,-0.0107,1.0004,-0.0269,192.0000,0.0000,0.0000,0.0000,0.0000,0.0000,0.0000,-11630.0000,5330.0000,23923.0000,1607234022.185600,2020-12-05 21:53:42.185600
250.000,-60657.2891,-51732.2852,-21094.9043,-11095.9199,-53202.0898,-16568.8555,-8312.5684,-17496.8105,0.0000,-10285.8926,-582.6653,0.0000,-24266.5059,-35077.5078,-20093.7266,-26967.1777,-0.0107,1.0004,-0.0269,192.0000,0.0000,0.0000,0.0000,0.0000,0.0000,0.0000,-11630.0000,5330.0000,23923.0000,1607234022.192400,2020-12-05 21:53:42.192399
252.000,-60634.1563,-51750.8789,-21078.5430,-11166.5957,-53135.9961,-16673.0371,-8229.4648,-17475.5996,0.0000,-9969.2129,-482.7083,0.0000,-24096.6094,-34727.1680,-19975.2168,-26759.1055,-0.0063,0.9992,-0.0254,192.0000,127.5000,120.0000,15.5000,24.0000,127.5000,32.0000,-11630.0000,5330.0000,23923.0000,1607234022.199200,2020-12-05 21:53:42.199200
254.000,-60643.4766,-51705.1250,-21098.2578,-11083.9834,-53212.9531,-16608.8203,-8304.2988,-17502.2422,0.0000,-10345.7285,-574.5963,0.0000,-24243.5059,-35076.0117,-20080.8066,-26956.7617,-0.0063,0.9992,-0.0254,192.0000,0.0000,0.0000,0.0000,0.0000,0.0000,0.0000,-11630.0000,5330.0000,23923.0000,1607234022.206000,2020-12-05 21:53:42.206000
0.000,-60646.2695,-51757.0508,-21084.5566,-11188.9033,-53129.9141,-16640.1582,-8230.8730,-17466.8379,0.0000,-9912.3281,-476.4498,0.0000,-24105.6406,-34697.0586,-19997.4336,-26764.2012,-0.0063,0.9992,-0.0254,192.0000,0.0000,0.0000,0.0000,0.0000,0.0000,0.0000,-11630.0000,5330.0000,23923.0000,1607234022.218750,2020-12-05 21:53:42.218750
2.000,-60641.0859,-51707.4961,-21106.4160,-11109.6436,-53215.4336,-16656.9883,-8313.1055,-17530.7188,0.0000,-10393.8516,-584.5875,0.0000,-24232.0840,-35148.7422,-20083.9590,-26984.2539,-0.0063,0.9992,-0.0254,192.0000,0.0000,0.0000,0.0000,0.0000,0.0000,0.0000,-11630.0000,5330.0000,23923.0000,1607234022.231500,2020-12-05 21:53:42.231500
4.000,-60652.6406,-51769.5430,-21080.1973,-11138.4775,-53131.9063,-16594.5820,-8211.6055,-17431.3867,0.0000,-9886.8916,-474.0581,0.0000,-24111.4746,-34699.5625,-20011.5605,-26772.6504,-0.0063,0.9992,-0.0254,192.0000,0.0000,0.0000,0.0000,0.0000,0.0000,0.0000,-11630.0000,5330.0000,23923.0000,1607234022.244250,2020-12-05 21:53:42.244250
6.000,-60614.3750,-51684.6055,-21101.1406,-11129.5811,-53223.8594,-16687.9688,-8299.8955,-17541.0000,0.0000,-10372.6621,-568.3154,0.0000,-24199.4277,-35131.7539,-20061.8750,-26947.5527,-0.0012,0.9956,-0.0217,192.0000,0.0000,16.0000,15.5000,0.0000,127.5000,56.0000,-11630.0000,5330.0000,23923.0000,1607234022.257000,2020-12-05 21:53:42.256999
8.000,-60665.0000,-51772.5625,-21073.2695,-11122.9434,-53134.8789,-16551.4668,-8208.5439,-17413.4395,0.0000,-9900.3477,-471.1524,0.0000,-24118.3145,-34695.1133,-20017.5059,-26782.9316,-0.0012,0.9956,-0.0217,192.0000,0.0000,0.0000,0.0000,0.0000,0.0000,0.0000,-11630.0000,5330.0000,23923.0000,1607234022.269750,2020-12-05 21:53:42.269750
10.000,-60615.1133,-51697.6367,-21111.0430,-11175.5811,-53230.2070,-16721.2051,-8304.6338,-17563.3750,0.0000,-10390.9229,-567.1979,0.0000,-24171.8691,-35119.0586,-20047.6367,-26943.5957,-0.0012,0.9956,-0.0217,192.0000,0.0000,0.0000,0.0000,0.0000,0.0000,0.0000,-11630.0000,5330.0000,23923.0000,1607234022.282500,2020-12-05 21:53:42.282500
12.000,-60660.8906,-51753.3398,-21064.0820,-11067.3760,-53130.0938,-16514.5625,-8196.8535,-17394.9766,0.0000,-9939.2168,-489.2573,0.0000,-24141.3359,-34764.9414,-20033.9805,-26796.9238,-0.0012,0.9956,-0.0217,192.0000,0.0000,0.0000,0.0000,0.0000,0.0000,0.0000,-11630.0000,5330.0000,23923.0000,1607234022.295250,2020-12-05 21:53:42.295250
14.000,-60611.6914,-51689.3906,-21114.1270,-11176.1846,-53217.3125,-16754.7324,-8293.7930,-17579.2227,0.0000,-10358.7588,-559.5759,0.0000,-24153.5410,-35111.4375,-20028.0117,-26906.7383,-0.0012,0.9956,-0.0217,192.0000,0.0000,0.0000,0.0000,0.0000,0.0000,0.0000,-11630.0000,5330.0000,23923.0000,1607234022.308000,2020-12-05 21:53:42.308000
16.000,-60673.5391,-51775.9141,-21073.4023,-11093.1260,-53129.1992,-16511.9707,-8203.2686,-17397.1445,0.0000,-9963.4014,-506.1552,0.0000,-24167.9785,-34788.6563,-20049.8496,-26827.1445,-0.0016,0.9908,-0.0229,192.0000,127.5000,120.0000,15.0000,104.0000,127.5000,32.0000,-11630.0000,5330.0000,23923.0000,1607234022.314730,2020-12-05 21:53:42.314733
18.000,-60600.5391,-51686.9531,-21113.1211,-11192.1436,-53217.0430,-16777.1289,-8288.1387,-17594.5996,0.0000,-10342.0625,-550.3446,0.0000,-24131.9492,-35079.6758,-20019.8301,-26888.3203,-0.0016,0.9908,-0.0229,192.0000,0.0000,0.0000,0.0000,0.0000,0.0000,0.0000,-11630.0000,5330.0000,23923.0000,1607234022.321470,2020-12-05 21:53:42.321466
20.000,-60684.0234,-51779.5586,-21080.9355,-11080.2285,-53156.6055,-16495.6992,-8229.2637,-17407.3809,0.0000,-9970.9785,-522.9414,0.0000,-24197.7969,-34849.4297,-20080.1367,-26848.1328,-0.0016,0.9908,-0.0229,192.0000,0.0000,0.0000,0.0000,0.0000,0.0000,0.0000,-11630.0000,5330.0000,23923.0000,1607234022.328200,2020-12-05 21:53:42.328200
22.000,-60605.3906,-51697.0586,-21119.7148,-11194.3789,-53214.8750,-16795.9043,-8283.2432,-17596.0977,0.0000,-10309.6074,-547.6401,0.0000,-24128.7305,-35045.7695,-20025.6426,-26881.5039,-0.0016,0.9908,-0.0229,192.0000,0.0000,0.0000,0.0000,0.0000,0.0000,0.0000,-11630.0000,5330.0000,23923.0000,1607234022.334930,2020-12-05 21:53:42.334933
24.000,-60675.2383,-51762.3672,-21075.8828,-11026.7188,-53148.1563,-16490.2441,-8227.4082,-17404.2305,0.0000,-10027.9980,-530.8763,0.0000,-24216.1465,-34893.3516,-20091.7363,-26864.2930,-0.0016,0.9908,-0.0229,192.0000,0.0000,0.0000,0.0000,0.0000,0.0000,0.0000,-11630.0000,5330.0000,23923.0000,1607234022.341670,2020-12-05 21:53:42.341666
26.000,-60604.1836,-51705.9961,-21120.1855,-11217.8486,-53187.0469,-16803.0566,-8277.4766,-17595.8066,0.0000,-10250.7109,-533.6702,0.0000,-24114.3359,-35014.9688,-20009.8848,-26838.7227,-0.0016,0.9908,-0.0229,192.0000,0.0000,0.0000,0.0000,0.0000,0.0000,0.0000,-11630.0000,5330.0000,23923.0000,1607234022.348400,2020-12-05 21:53:42.348400
28.000,-60685.1836,-51773.2305,-21088.7813,-11062.8613,-53161.4102,-16498.5605,-8247.4580,-17418.8027,0.0000,-10125.9658,-555.6420,0.0000,-24247.5508,-34976.7227,-20104.6113,-26906.0684,0.0040,0.9980,-0.0240,192.0000,0.0000,16.0000,15.5000,24.0000,127.5000,32.0000,-11630.0000,5330.0000,23923.0000,1607234022.355130,2020-12-05 21:53:42.355133
30.000,-60615.0664,-51719.0977,-21113.8379,-11200.9951,-53180.3398,-16785.4883,-8267.3291,-17570.3711,0.0000,-10164.7461,-525.8024,0.0000,-24109.5742,-34939.5078,-19999.9824,-26818.1582,0.0040,0.9980,-0.0240,192.0000,0.0000,0.0000,0.0000,0.0000,0.0000,0.0000,-11630.0000,5330.0000,23923.0000,1607234022.361870,2020-12-05 21:53:42.361866
32.000,-60679.9531,-51762.6133,-21089.8320,-11051.9092,-53175.6016,-16519.7051,-8258.4775,-17446.7871,0.0000,-10194.7871,-574.5516,0.0000,-24260.7617,-35012.7305,-20103.3379,-26922.8320,0.0040,0.9980,-0.0240,192.0000,0.0000,0.0000,0.0000,0.0000,0.0000,0.0000,-11630.0000,5330.0000,23923.0000,1607234022.368600,2020-12-05 21:53:42.368599
34.000,-60623.2500,-51742.4531,-21116.0508,-11229.8291,-53170.8867,-16788.8633,-8258.2314,-17573.4551,0.0000,-10113.4707,-522.2932,0.0000,-24104.3438,-34917.0898,-19988.2246,-26811.6758,0.0040,0.9980,-0.0240,192.0000,0.0000,0.0000,0.0000,0.0000,0.0000,0.0000,-11630.0000,5330.0000,23923.0000,1607234022.375330,2020-12-05 21:53:42.375333
36.000,-60674.3438,-51754.3906,-21107.4668,-11076.6973,-53203.6094,-16558.0371,-8279.9795,-17480.4727,0.0000,-10242.7979,-589.6166,0.0000,-24268.9648,-35117.7188,-20109.6406,-26965.3438,0.0040,0.9980,-0.0240,192.0000,0.0000,0.0000,0.0000,0.0000,0.0000,0.0000,-11630.0000,5330.0000,23923.0000,1607234022.382070,2020-12-05 21:53:42.382066
38.000,-60615.9609,-51735.0547,-21105.2324,-11181.0127,-53151.1484,-16741.4785,-8247.6367,-17551.3047,0.0000,-10048.2266,-506.0882,0.0000,-24103.4277,-34830.1406,-19989.4551,-26780.8984,0.0120,0.9900,-0.0240,192.0000,0.0000,48.0000,15.0000,120.0000,127.5000,32.0000,-11630.0000,5330.0000,23923.0000,1607234022.388800,2020-12-05 21:53:42.388799
40.000,-60655.6367,-51737.0430,-21108.9648,-11061.3418,-53208.8164,-16581.1719,-8289.3672,-17499.4492,0.0000,-10291.7041,-585.1016,0.0000,-24270.6191,-35134.6406,-20101.6836,-26961.1426,0.0120,0.9900,-0.0240,192.0000,0.0000,0.0000,0.0000,0.0000,0.0000,0.0000,-11630.0000,5330.0000,23923.0000,1607234022.395530,2020-12-05 21:53:42.395533
42.000,-60640.0586,-51763.8008,-21114.3516,-11211.8135,-53161.0742,-16710.8789,-8230.0234,-17519.6328,0.0000,-9994.8506,-499.7403,0.0000,-24107.6289,-34826.2734,-19996.1836,-26779.2891,0.0120,0.9900,-0.0240,192.0000,0.0000,0.0000,0.0000,0.0000,0.0000,0.0000,-11630.0000,5330.0000,23923.0000,1607234022.402270,2020-12-05 21:53:42.402266
44.000,-60651.7031,-51737.9609,-21124.2090,-11106.7158,-53233.2031,-16634.7715,-8297.3916,-17525.7344,0.0000,-10351.4502,-605.1288,0.0000,-24271.8262,-35189.5117,-20108.8809,-26982.8906,0.0120,0.9900,-0.0240,192.0000,0.0000,0.0000,0.0000,0.0000,0.0000,0.0000,-11630.0000,5330.0000,23923.0000,1607234022.409000,2020-12-05 21:53:42.408999
46.000,-60635.7227,-51759.9102,-21093.7656,-11173.5469,-53134.3398,-16669.5059,-8229.6211,-17499.2480,0.0000,-9940.0664,-491.0008,0.0000,-24119.2305,-34803.8555,-20008.2754,-26777.0098,0.0120,0.9900,-0.0240,192.0000,0.0000,0.0000,0.0000,0.0000,0.0000,0.0000,-11630.0000,5330.0000,23923.0000,1607234022.415730,2020-12-05 21:53:42.415733
48.000,-60639.9883,-51719.3633,-21110.9766,-11130.9893,-53215.0977,-16664.9238,-8293.1006,-17524.8848,0.0000,-10382.3848,-596.9704,0.0000,-24248.9824,-35221.0938,-20099.2012,-26975.1348,0.0080,0.9900,-0.0300,192.0000,0.0000,32.0000,15.0000,120.0000,127.5000,8.0000,-11630.0000,5330.0000,23923.0000,1607234022.422470,2020-12-05 21:53:42.422466
50.000,-60656.6641,-51778.8633,-21080.3086,-11172.7422,-53123.7227,-16622.3887,-8208.8115,-17433.0859,0.0000,-9942.7705,-488.8773,0.0000,-24123.7012,-34811.8359,-20011.4941,-26775.1543,0.0080,0.9900,-0.0300,192.0000,0.0000,0.0000,0.0000,0.0000,0.0000,0.0000,-11630.0000,5330.0000,23923.0000,1607234022.429200,2020-12-05 21:53:42.429199
52.000,-60648.2383,-51719.8320,-21116.1387,-11112.9736,-53221.4258,-16705.4023,-8307.4502,-17531.1875,0.0000,-10381.7148,-599.8314,0.0000,-24236.2188,-35179.9922,-20083.7344,-26958.4375,0.0080,0.9900,-0.0300,192.0000,0.0000,0.0000,0.0000,0.0000,0.0000,0.0000,-11630.0000,5330.0000,23923.0000,1607234022.435930,2020-12-05 21:53:42.435933
54.000,-60673.4727,-51786.4180,-21081.6289,-11137.3154,-53120.9531,-16594.4941,-8219.5635,-17401.3242,0.0000,-9891.6748,-498.5109,0.0000,-24150.5449,-34776.9648,-20033.4648,-26793.1016,0.0080,0.9900,-0.0300,192.0000,0.0000,0.0000,0.0000,0.0000,0.0000,0.0000,-11630.0000,5330.0000,23923.0000,1607234022.442670,2020-12-05 21:53:42.442666
56.000,-60640.5938,-51721.5547,-21121.4805,-11164.9199,-53208.7734,-16735.3086,-8304.4775,-17513.4414,0.0000,-10418.1924,-592.2542,0.0000,-24207.9883,-35232.7852,-20066.2559,-26952.2695,0.0080,0.9900,-0.0300,192.0000,0.0000,0.0000,0.0000,0.0000,0.0000,0.0000,-11630.0000,5330.0000,23923.0000,1607234022.449400,2020-12-05 21:53:42.449399
58.000,-60689.2539,-51795.8086,-21084.7344,-11120.3281,-53105.0820,-16548.8516,-8210.7793,-17345.7793,0.0000,-9903.3867,-510.1115,0.0000,-24171.6895,-34806.0469,-20048.2852,-26809.1504,0.0040,0.9980,-0.0260,192.0000,0.0000,16.0000,15.5000,24.0000,127.5000,24.0000,-11630.0000,5330.0000,23923.0000,1607234022.456130,2020-12-05 21:53:42.456133
60.000,-60627.4727,-51708.5898,-21123.3145,-11179.2471,-53203.1836,-16764.0977,-8303.1143,-17510.6465,0.0000,-10393.0693,-575.1327,0.0000,-24184.6758,-35189.1992,-20053.0449,-26928.2852,0.0040,0.9980,-0.0260,192.0000,0.0000,0.0000,0.0000,0.0000,0.0000,0.0000,-11630.0000,5330.0000,23923.0000,1607234022.462870,2020-12-05 21:53:42.462866
62.000,-60679.0625,-51778.0820,-21082.1191,-11095.2490,-53119.9688,-16516.6875,-8214.0645,-17337.9355,0.0000,-9906.0469,-509.9103,0.0000,-24187.0449,-34828.7773,-20073.5645,-26823.9023,0.0040,0.9980,-0.0260,192.0000,0.0000,0.0000,0.0000,0.0000,0.0000,0.0000,-11630.0000,5330.0000,23923.0000,1607234022.469600,2020-12-05 21:53:42.469599
64.000,-60617.5703,-51706.6445,-21127.5605,-11205.0410,-53198.8945,-16777.8672,-8284.2041,-17511.6309,0.0000,-10338.7324,-558.6595,0.0000,-24160.3359,-35148.6992,-20046.0723,-26899.8770,0.0040,0.9980,-0.0260,192.0000,0.0000,0.0000,0.0000,0.0000,0.0000,0.0000,-11630.0000,5330.0000,23923.0000,1607234022.476330,2020-12-05 21:53:42.476333
66.000,-60693.5898,-51792.9023,-21083.2813,-11064.8955,-53127.4570,-16483.8066,-8207.3594,-17323.7188,0.0000,-9951.0410,-520.7733,0.0000,-24205.3730,-34880.0977,-20081.4766,-26833.9160,0.0040,0.9980,-0.0260,192.0000,0.0000,0.0000,0.0000,0.0000,0.0000,0.0000,-11630.0000,5330.0000,23923.0000,1607234022.483070,2020-12-05 21:53:42.483066
68.000,-60618.2852,-51715.3203,-21127.5391,-11230.9688,-53192.7227,-16785.4668,-8283.2207,-17531.9707,0.0000,-10288.4629,-549.6517,0.0000,-24141.6719,-35105.0000,-20029.0840,-26868.0020,0.0040,1.0000,-0.0300,192.0000,0.0000,16.0000,15.5000,32.0000,127.5000,8.0000,-11630.0000,5330.0000,23923.0000,1607234022.489800,2020-12-05 21:53:42.489799
70.000,-60697.1211,-51792.5000,-21092.2227,-11068.0244,-53144.6680,-16468.3848,-8213.6172,-17329.6641,0.0000,-9988.5029,-534.3184,0.0000,-24222.3164,-34958.7734,-20095.7383,-26867.7793,0.0040,1.0000,-0.0300,192.0000,0.0000,0.0000,0.0000,0.0000,0.0000,0.0000,-11630.0000,5330.0000,23923.0000,1607234022.496530,2020-12-05 21:53:42.496533
72.000,-60606.5977,-51714.2891,-21124.7676,-11222.2295,-53187.4727,-16787.8809,-8269.8320,-17533.9590,0.0000,-10249.8613,-540.6663,0.0000,-24123.5449,-35041.4102,-20007.4922,-26845.9199,0.0040,1.0000,-0.0300,192.0000,0.0000,0.0000,0.0000,0.0000,0.0000,0.0000,-11630.0000,5330.0000,23923.0000,1607234022.503270,2020-12-05 21:53:42.503266
74.000,-60690.9063,-51778.3516,-21093.4746,-11053.6523,-53154.4570,-16468.0039,-8228.7500,-17352.6426,0.0000,-10048.3604,-545.8296,0.0000,-24232.3750,-34971.4727,-20085.1211,-26886.0859,0.0040,1.0000,-0.0300,192.0000,0.0000,0.0000,0.0000,0.0000,0.0000,0.0000,-11630.0000,5330.0000,23923.0000,1607234022.510000,2020-12-05 21:53:42.509999
76.000,-60611.6719,-51726.6289,-21126.8457,-11225.8955,-53186.0195,-16769.5293,-8269.3848,-17528.0137,0.0000,-10156.2520,-530.1610,0.0000,-24110.3574,-34992.0117,-19985.5879,-26818.2246,0.0040,1.0000,-0.0300,192.0000,0.0000,0.0000,0.0000,0.0000,0.0000,0.0000,-11630.0000,5330.0000,23923.0000,1607234022.524570,2020-12-05 21:53:42.524571
78.000,-60685.0273,-51774.6172,-21103.8008,-11046.9697,-53184.1172,-16482.0645,-8248.3301,-17383.5098,0.0000,-10132.1572,-561.0511,0.0000,-24242.5898,-35044.0703,-20090.3066,-26910.6270,0.0020,0.9920,-0.0300,192.0000,0.0000,8.0000,15.5000,0.0000,127.5000,8.0000,-11630.0000,5330.0000,23923.0000,1607234022.539140,2020-12-05 21:53:42.539142
80.000,-60612.0508,-51730.6055,-21118.8223,-11204.7500,-53174.0586,-16746.2168,-8254.5879,-17521.6211,0.0000,-10083.8105,-509.3292,0.0000,-24087.3574,-34938.6367,-19978.9492,-26791.2031,0.0020,0.9920,-0.0300,192.0000,0.0000,0.0000,0.0000,0.0000,0.0000,0.0000,-11630.0000,5330.0000,23923.0000,1607234022.553710,2020-12-05 21:53:42.553714
82.000,-60669.6523,-51759.4414,-21102.1016,-11066.9072,-53185.7734,-16508.3711,-8258.7686,-17410.8457,0.0000,-10175.6758,-562.9957,0.0000,-24242.8809,-35093.8008,-20094.0391,-26931.6387,0.0020,0.9920,-0.0300,192.0000,0.0000,0.0000,0.0000,0.0000,0.0000,0.0000,-11630.0000,5330.0000,23923.0000,1607234022.568290,2020-12-05 21:53:42.568285
84.000,-60627.0469,-51750.4102,-21118.7773,-11214.8086,-53159.4219,-16719.8418,-8239.4111,-17490.8203,0.0000,-10036.0674,-494.3759,0.0000,-24079.0410,-34889.2148,-19987.9570,-26777.2773,0.0020,0.9920,-0.0300,192.0000,0.0000,0.0000,0.0000,0.0000,0.0000,0.0000,-11630.0000,5330.0000,23923.0000,1607234022.582860,2020-12-05 21:53:42.582857
86.000,-60666.0508,-51748.9141,-21118.1953,-11076.6973,-53211.5898,-16538.7695,-8279.4883,-17435.0977,0.0000,-10215.1943,-576.3174,0.0000,-24247.3730,-35139.1992,-20107.5176,-26953.6094,0.0020,0.9920,-0.0300,192.0000,0.0000,0.0000,0.0000,0.0000,0.0000,0.0000,-11630.0000,5330.0000,23923.0000,1607234022.597430,2020-12-05 21:53:42.597428
88.000,-60636.7500,-51763.8672,-21114.5742,-11199.2969,-53154.5703,-16679.6758,-8234.7402,-17469.5410,0.0000,-9979.9863,-492.2077,0.0000,-24085.1660,-34842.3438,-19998.5742,-26764.5586,0.0080,0.9920,-0.0240,192.0000,0.0000,32.0000,15.5000,0.0000,127.5000,32.0000,-11630.0000,5330.0000,23923.0000,1607234022.612000,2020-12-05 21:53:42.611999
90.000,-60673.7188,-51758.9258,-21125.1250,-11098.4004,-53218.1836,-16573.3047,-8290.8428,-17454.8340,0.0000,-10304.8916,-590.7566,0.0000,-24248.1543,-35198.7227,-20106.6895,-26960.0254,0.0080,0.9920,-0.0240,192.0000,0.0000,0.0000,0.0000,0.0000,0.0000,0.0000,-11630.0000,5330.0000,23923.0000,1607234022.618730,2020-12-05 21:53:42.618733
92.000,-60647.1875,-51776.8086,-21106.0137,-11209.2432,-53140.4883,-16650.7969,-8227.4531,-17456.9570,0.0000,-9932.9805,-498.4439,0.0000,-24092.7441,-34848.9375,-19999.9824,-26775.1543,0.0080,0.9920,-0.0240,192.0000,0.0000,0.0000,0.0000,0.0000,0.0000,0.0000,-11630.0000,5330.0000,23923.0000,1607234022.625470,2020-12-05 21:53:42.625466
94.000,-60640.0586,-51714.9609,-21119.2012,-11098.5791,-53221.6250,-16614.4531,-8304.3438,-17494.3066,0.0000,-10306.8135,-588.9908,0.0000,-24234.1172,-35193.7813,-20091.3789,-26962.9082,0.0080,0.9920,-0.0240,192.0000,0.0000,0.0000,0.0000,0.0000,0.0000,0.0000,-11630.0000,5330.0000,23923.0000,1607234022.632200,2020-12-05 21:53:42.632200
96.000,-60649.6445,-51768.8047,-21094.0781,-11152.1787,-53133.0234,-16594.3809,-8213.7295,-17417.7520,0.0000,-9872.5420,-475.8016,0.0000,-24109.0156,-34794.0859,-20005.8828,-26760.8711,0.0080,0.9920,-0.0240,192.0000,0.0000,0.0000,0.0000,0.0000,0.0000,0.0000,-11630.0000,5330.0000,23923.0000,1607234022.638930,2020-12-05 21:53:42.638933
98.000,-60637.3320,-51720.6602,-21128.7461,-11117.6006,-53228.6641,-16647.6914,-8303.9629,-17504.8789,0.0000,-10331.0654,-584.1628,0.0000,-24222.1816,-35206.3438,-20078.8848,-26947.2617,0.0160,0.9880,-0.0320,192.0000,0.0000,64.0000,15.0000,112.0000,127.5000,0.0000,-11630.0000,5330.0000,23923.0000,1607234022.645670,2020-12-05 21:53:42.645666
100.000,-60676.6914,-51804.1445,-21107.4219,-11131.7051,-53132.3281,-16569.6836,-8218.2441,-17411.2715,0.0000,-9846.1445,-492.8336,0.0000,-24130.1816,-34805.3750,-20029.6211,-26777.4336,0.0160,0.9880,-0.0320,192.0000,0.0000,0.0000,0.0000,0.0000,0.0000,0.0000,-11630.0000,5330.0000,23923.0000,1607234022.652400,2020-12-05 21:53:42.652400
102.000,-60645.8008,-51734.3164,-21140.8164,-11134.9902,-53235.8398,-16676.9707,-8299.3809,-17533.0215,0.0000,-10361.6875,-602.5806,0.0000,-24210.0000,-35218.9063,-20067.3730,-26937.3379,0.0160,0.9880,-0.0320,192.0000,0.0000,0.0000,0.0000,0.0000,0.0000,0.0000,-11630.0000,5330.0000,23923.0000,1607234022.659130,2020-12-05 21:53:42.659133
104.000,-60674.4805,-51793.5938,-21094.9277,-11108.7939,-53134.8984,-16516.3301,-8209.2139,-17398.8887,0.0000,-9851.4863,-506.6693,0.0000,-24150.4102,-34802.3594,-20033.0176,-26776.5176,0.0160,0.9880,-0.0320,192.0000,0.0000,0.0000,0.0000,0.0000,0.0000,0.0000,-11630.0000,5330.0000,23923.0000,1607234022.665870,2020-12-05 21:53:42.665866
106.000,-60618.3086,-51708.6133,-21130.5566,-11174.3291,-53226.6523,-16717.0918,-8307.6064,-17572.1367,0.0000,-10320.6494,-579.7372,0.0000,-24178.2383,-35201.7852,-20049.8711,-26922.3848,0.0160,0.9880,-0.0320,192.0000,0.0000,0.0000,0.0000,0.0000,0.0000,0.0000,-11630.0000,5330.0000,23923.0000,1607234022.672600,2020-12-05 21:53:42.672600
108.000,-60690.6406,-51806.8711,-21098.0566,-11094.1982,-53129.6016,-16493.1719,-8204.7891,-17395.9375,0.0000,-9853.5654,-512.0784,0.0000,-24166.1680,-34846.5039,-20051.7930,-26812.4590,0.0160,0.9900,-0.0320,192.0000,0.0000,64.0000,15.5000,0.0000,127.5000,0.0000,-11630.0000,5330.0000,23923.0000,1607234022.679330,2020-12-05 21:53:42.679333
110.000,-60628.8125,-51729.6914,-21145.7324,-11184.4102,-53212.7070,-16741.1426,-8291.9160,-17580.1152,0.0000,-10281.5566,-582.1512,0.0000,-24156.9824,-35147.4922,-20028.9727,-26905.5977,0.0160,0.9900,-0.0320,192.0000,0.0000,0.0000,0.0000,0.0000,0.0000,0.0000,-11630.0000,5330.0000,23923.0000,1607234022.686070,2020-12-05 21:53:42.686066
112.000,-60712.9023,-51820.4609,-21112.5410,-11069.1650,-53152.7813,-16461.1426,-8213.2373,-17389.6348,0.0000,-9874.1729,-544.3320,0.0000,-24201.7305,-34880.9453,-20060.7578,-26832.9336,0.0160,0.9900,-0.0320,192.0000,0.0000,0.0000,0.0000,0.0000,0.0000,0.0000,-11630.0000,5330.0000,23923.0000,1607234022.692800,2020-12-05 21:53:42.692800
114.000,-60619.2695,-51719.4102,-21153.4883,-11200.3242,-53226.5664,-16761.7520,-8299.5381,-17595.6055,0.0000,-10244.2061,-572.3611,0.0000,-24150.7246,-35131.4219,-20019.2715,-26881.8613,0.0160,0.9900,-0.0320,192.0000,0.0000,0.0000,0.0000,0.0000,0.0000,0.0000,-11630.0000,5330.0000,23923.0000,1607234022.699530,2020-12-05 21:53:42.699533
116.000,-60707.9375,-51806.7813,-21116.5645,-11058.5479,-53163.1289,-16453.5430,-8225.3525,-17389.6113,0.0000,-9934.2324,-555.7538,0.0000,-24229.7598,-34948.5586,-20088.6074,-26872.2715,0.0160,0.9900,-0.0320,192.0000,0.0000,0.0000,0.0000,0.0000,0.0000,0.0000,-11630.0000,5330.0000,23923.0000,1607234022.706270,2020-12-05 21:53:42.706266
118.000,-60618.9570,-51725.3984,-21148.0137,-11216.5518,-53202.4023,-16764.8574,-8273.7217,-17572.0020,0.0000,-10149.9268,-555.5750,0.0000,-24136.6875,-35076.5000,-20004.9902,-26856.6250,0.0170,0.9900,-0.0300,192.0000,0.0000,72.0000,15.0000,120.0000,127.5000,16.0000,-11630.0000,5330.0000,23923.0000,1607234022.713000,2020-12-05 21:53:42.713000
120.000,-60697.0977,-51791.6289,-21101.4102,-11045.6504,-53161.9023,-16448.8711,-8231.7227,-17396.6309,0.0000,-9965.2344,-562.8169,0.0000,-24241.4492,-34975.7188,-20086.1934,-26894.6914,0.0170,0.9900,-0.0300,192.0000,0.0000,0.0000,0.0000,0.0000,0.0000,0.0000,-11630.0000,5330.0000,23923.0000,1607234022.719730,2020-12-05 21:53:42.719733
122.000,-60636.9961,-51745.4922,-21140.4805,-11207.2539,-53196.1680,-16753.4141,-8264.7588,-17570.1250,0.0000,-10107.7041,-549.3165,0.0000,-24115.6094,-35018.4102,-19990.4609,-26826.5176,0.0170,0.9900,-0.0300,192.0000,0.0000,0.0000,0.0000,0.0000,0.0000,0.0000,-11630.0000,5330.0000,23923.0000,1607234022.726470,2020-12-05 21:53:42.726466
124.000,-60712.4531,-51802.8047,-21123.7383,-11076.7422,-53190.4453,-16475.5605,-8255.2588,-17431.0293,0.0000,-10034.0557,-587.0685,0.0000,-24260.3145,-35053.0313,-20100.9004,-26920.2617,0.0170,0.9900,-0.0300,192.0000,0.0000,0.0000,0.0000,0.0000,0.0000,0.0000,-11630.0000,5330.0000,23923.0000,1607234022.733200,2020-12-05 21:53:42.733200
126.000,-60629.5078,-51743.6836,-21134.4238,-11213.3555,-53186.7578,-16738.2598,-8252.0400,-17560.3574,0.0000,-10058.2178,-545.0472,0.0000,-24113.7754,-34991.0078,-19996.0703,-26817.1973,0.0170,0.9900,-0.0300,192.0000,0.0000,0.0000,0.0000,0.0000,0.0000,0.0000,-11630.0000,5330.0000,23923.0000,1607234022.739930,2020-12-05 21:53:42.739933
128.000,-60694.2148,-51781.5898,-21116.8984,-11052.1104,-53202.4688,-16484.1660,-8255.3037,-17441.1777,0.0000,-10064.7666,-580.4525,0.0000,-24253.8770,-35088.8633,-20103.4707,-26929.6270,0.0195,0.9940,-0.0290,192.0000,0.0000,88.0000,15.5000,24.0000,127.5000,16.0000,-11630.0000,5330.0000,23923.0000,1607234022.746670,2020-12-05 21:53:42.746666
130.000,-60639.4297,-51759.8867,-21128.6563,-11205.9795,-53172.6953,-16714.2754,-8244.7314,-17538.8320,0.0000,-9974.9346,-524.6401,0.0000,-24092.7207,-34929.2266,-19996.8984,-26793.1250,0.0195,0.9940,-0.0290,192.0000,0.0000,0.0000,0.0000,0.0000,0.0000,0.0000,-11630.0000,5330.0000,23923.0000,1607234022.753400,2020-12-05 21:53:42.753400
132.000,-60694.2617,-51777.2773,-21124.3203,-11062.3916,-53218.5391,-16506.5176,-8269.5645,-17454.9453,0.0000,-10136.1582,-609.3085,0.0000,-24260.1133,-35138.9297,-20115.4512,-26953.8789,0.0195,0.9940,-0.0290,192.0000,0.0000,0.0000,0.0000,0.0000,0.0000,0.0000,-11630.0000,5330.0000,23923.0000,1607234022.760130,2020-12-05 21:53:42.760133
134.000,-60649.0664,-51767.6875,-21117.0117,-11206.0918,-53151.5742,-16682.6719,-8229.6436,-17510.4902,0.0000,-9925.4482,-522.6061,0.0000,-24103.4043,-34899.0078,-19990.3496,-26775.1309,0.0195,0.9940,-0.0290,192.0000,0.0000,0.0000,0.0000,0.0000,0.0000,0.0000,-11630.0000,5330.0000,23923.0000,1607234022.766870,2020-12-05 21:53:42.766866
136.000,-60683.9766,-51760.5820,-21119.3809,-11078.7539,-53222.6758,-16552.9199,-8284.8525,-17490.3516,0.0000,-10182.2695,-609.1744,0.0000,-24261.6113,-35184.0820,-20104.1426,-26964.6523,0.0195,0.9940,-0.0290,192.0000,0.0000,0.0000,0.0000,0.0000,0.0000,0.0000,-11630.0000,5330.0000,23923.0000,1607234022.773600,2020-12-05 21:53:42.773599
138.000,-60657.7148,-51788.3438,-21107.4883,-11172.4971,-53148.3789,-16643.6680,-8221.6641,-17487.0430,0.0000,-9845.0938,-503.7859,0.0000,-24097.5273,-34836.4453,-19998.9551,-26767.5996,0.0188,0.9950,-0.0275,192.0000,0.0000,72.0000,15.5000,16.0000,127.5000,24.0000,-11630.0000,5330.0000,23923.0000,1607234022.780330,2020-12-05 21:53:42.780333
140.000,-60678.2578,-51761.4063,-21137.1719,-11106.1787,-53242.3672,-16586.3789,-8287.0205,-17512.2773,0.0000,-10229.9912,-608.7944,0.0000,-24244.7793,-35212.9805,-20096.3418,-26961.8809,0.0188,0.9950,-0.0275,192.0000,0.0000,0.0000,0.0000,0.0000,0.0000,0.0000,-11630.0000,5330.0000,23923.0000,1607234022.787070,2020-12-05 21:53:42.787066
142.000,-60676.1094,-51794.6016,-21116.4746,-11158.1025,-53153.4063,-16606.1152,-8214.9590,-17465.6758,0.0000,-9815.0303,-519.0075,0.0000,-24118.0898,-34840.6914,-20017.4160,-26779.6680,0.0188,0.9950,-0.0275,192.0000,0.0000,0.0000,0.0000,0.0000,0.0000,0.0000,-11630.0000,5330.0000,23923.0000,1607234022.793800,2020-12-05 21:53:42.793799
144.000,-60665.7188,-51749.3398,-21126.7109,-11115.8350,-53241.0469,-16630.1660,-8296.0957,-17529.8027,0.0000,-10250.4873,-612.7283,0.0000,-24227.2344,-35255.7852,-20083.5332,-26957.2988,0.0188,0.9950,-0.0275,192.0000,0.0000,0.0000,0.0000,0.0000,0.0000,0.0000,-11630.0000,5330.0000,23923.0000,1607234022.800530,2020-12-05 21:53:42.800533
146.000,-60688.4258,-51814.7188,-21098.8164,-11140.2207,-53153.1406,-16569.4375,-8208.9912,-17437.9805,0.0000,-9796.9932,-516.1912,0.0000,-24126.3594,-34831.7266,-20015.9863,-26776.7402,0.0188,0.9950,-0.0275,192.0000,0.0000,0.0000,0.0000,0.0000,0.0000,0.0000,-11630.0000,5330.0000,23923.0000,1607234022.807270,2020-12-05 21:53:42.807266
148.000,-60656.1719,-51736.7109,-21132.7910,-11136.8682,-53251.0859,-16674.5566,-8294.3525,-17551.2383,0.0000,-10242.7764,-604.6817,0.0000,-24206.9609,-35231.6211,-20064.3789,-26950.9941,0.0174,0.9945,-0.0258,192.0000,0.0000,64.0000,15.5000,8.0000,127.5000,32.0000,-11630.0000,5330.0000,23923.0000,1607234022.814000,2020-12-05 21:53:42.813999
150.000,-60702.8672,-51827.8594,-21105.9238,-11123.0322,-53159.9102,-16541.6543,-8205.9063,-17416.5684,0.0000,-9770.1709,-516.1017,0.0000,-24142.6328,-34833.4063,-20036.1934,-26798.5566,0.0174,0.9945,-0.0258,192.0000,0.0000,0.0000,0.0000,0.0000,0.0000,0.0000,-11630.0000,5330.0000,23923.0000,1607234022.826750,2020-12-05 21:53:42.826749
152.000,-60648.1484,-51741.5820,-21145.6445,-11171.2900,-53262.3516,-16718.5234,-8303.4717,-17562.5020,0.0000,-10255.2480,-601.0607,0.0000,-24188.2520,-35229.4766,-20064.7578,-26946.7266,0.0174,0.9945,-0.0258,192.0000,0.0000,0.0000,0.0000,0.0000,0.0000,0.0000,-11630.0000,5330.0000,23923.0000,1607234022.839500,2020-12-05 21:53:42.839499
154.000,-60703.4922,-51823.3008,-21107.2656,-11104.9502,-53170.9766,-16517.0000,-8211.1367,-17397.0547,0.0000,-9789.0576,-526.0483,0.0000,-24166.4375,-34876.1172,-20062.9023,-26822.6953,0.0174,0.9945,-0.0258,192.0000,0.0000,0.0000,0.0000,0.0000,0.0000,0.0000,-11630.0000,5330.0000,23923.0000,1607234022.852250,2020-12-05 21:53:42.852249
156.000,-60647.2109,-51734.5859,-21135.4297,-11167.0205,-53253.1641,-16745.4355,-8296.5205,-17565.7441,0.0000,-10227.8223,-596.4563,0.0000,-24169.2539,-35219.5547,-20051.1230,-26925.0449,0.0174,0.9945,-0.0258,192.0000,0.0000,0.0000,0.0000,0.0000,0.0000,0.0000,-11630.0000,5330.0000,23923.0000,1607234022.865000,2020-12-05 21:53:42.864999
158.000,-60725.8438,-51829.7813,-21101.0293,-11086.0400,-53170.3047,-16485.9531,-8214.0645,-17380.4473,0.0000,-9802.0889,-540.9346,0.0000,-24185.3906,-34903.6094,-20066.7480,-26836.9336,0.0167,0.9963,-0.0249,192.0000,0.0000,64.0000,15.5000,24.0000,127.5000,32.0000,-11630.0000,5330.0000,23923.0000,1607234022.877750,2020-12-05 21:53:42.877749
160.000,-60637.5078,-51733.3359,-21138.0664,-11188.6348,-53245.6992,-16766.1777,-8293.5693,-17571.6895,0.0000,-10181.6211,-584.2746,0.0000,-24142.8340,-35176.1016,-20033.0859,-26904.2793,0.0167,0.9963,-0.0249,192.0000,0.0000,0.0000,0.0000,0.0000,0.0000,0.0000,-11630.0000,5330.0000,23923.0000,1607234022.890500,2020-12-05 21:53:42.890499
162.000,-60714.6680,-51817.9805,-21101.7891,-11059.0166,-53185.9297,-16471.1563,-8220.0322,-17378.1680,0.0000,-9831.9512,-541.2922,0.0000,-24201.3945,-34941.6992,-20074.8613,-26856.6035,0.0167,0.9963,-0.0249,192.0000,0.0000,0.0000,0.0000,0.0000,0.0000,0.0000,-11630.0000,5330.0000,23923.0000,1607234022.903250,2020-12-05 21:53:42.903249
164.000,-60639.5430,-51737.0000,-21147.2090,-11203.6553,-53257.5000,-16774.5137,-8284.3613,-17574.1035,0.0000,-10134.6162,-555.7985,0.0000,-24120.8164,-35118.4570,-20014.1309,-26868.9648,0.0167,0.9963,-0.0249,192.0000,0.0000,0.0000,0.0000,0.0000,0.0000,0.0000,-11630.0000,5330.0000,23923.0000,1607234022.916000,2020-12-05 21:53:42.915999
166.000,-60712.4102,-51805.3516,-21099.3535,-11048.8467,-53211.5234,-16457.5215,-8227.6768,-17383.8672,0.0000,-9873.3242,-550.6352,0.0000,-24215.8340,-34988.7930,-20092.8320,-26886.2637,0.0167,0.9963,-0.0249,192.0000,0.0000,0.0000,0.0000,0.0000,0.0000,0.0000,-11630.0000,5330.0000,23923.0000,1607234022.922730,2020-12-05 21:53:42.922733
168.000,-60635.9219,-51745.9844,-21125.2148,-11208.4385,-53236.7578,-16771.7422,-8281.4775,-17574.5508,0.0000,-10055.4688,-536.7101,0.0000,-24099.1797,-35081.8008,-20000.2285,-26840.5996,0.0133,0.9991,-0.0274,192.0000,0.0000,40.0000,15.5000,40.0000,127.5000,8.0000,-11630.0000,5330.0000,23923.0000,1607234022.929470,2020-12-05 21:53:42.929466
170.000,-60735.0313,-51826.5195,-21114.4414,-11069.2314,-53228.4219,-16479.3809,-8255.6162,-17410.4668,0.0000,-9944.2910,-579.3348,0.0000,-24232.3516,-35039.4414,-20102.7344,-26919.7910,0.0133,0.9991,-0.0274,192.0000,0.0000,0.0000,0.0000,0.0000,0.0000,0.0000,-11630.0000,5330.0000,23923.0000,1607234022.936200,2020-12-05 21:53:42.936199
172.000,-60649.6016,-51760.5586,-21145.3301,-11229.7842,-53231.1250,-16770.2012,-8269.7207,-17562.3691,0.0000,-10019.1914,-555.1949,0.0000,-24106.4902,-35026.3672,-20003.7832,-26841.7168,0.0133,0.9991,-0.0274,192.0000,0.0000,0.0000,0.0000,0.0000,0.0000,0.0000,-11630.0000,5330.0000,23923.0000,1607234022.942930,2020-12-05 21:53:42.942933
174.000,-60720.3906,-51802.1328,-21126.4219,-11072.3613,-53233.1133,-16504.6387,-8270.0332,-17435.2988,0.0000,-10009.2451,-583.7605,0.0000,-24247.8652,-35098.2734,-20110.7363,-26949.0508,0.0133,0.9991,-0.0274,192.0000,0.0000,0.0000,0.0000,0.0000,0.0000,0.0000,-11630.0000,5330.0000,23923.0000,1607234022.949670,2020-12-05 21:53:42.949666
176.000,-60659.8164,-51775.6250,-21148.6602,-11241.5635,-53228.5313,-16751.8711,-8257.7178,-17549.0918,0.0000,-9950.7285,-531.0998,0.0000,-24099.3809,-34964.4766,-20017.0820,-26828.7754,0.0133,0.9991,-0.0274,192.0000,0.0000,0.0000,0.0000,0.0000,0.0000,0.0000,-11630.0000,5330.0000,23923.0000,1607234022.956400,2020-12-05 21:53:42.956399
178.000,-60698.6875,-51783.5586,-21125.6602,-11068.5615,-53250.5273,-16523.1016,-8274.2803,-17457.8301,0.0000,-10072.6787,-587.8062,0.0000,-24253.2520,-35145.9258,-20122.5371,-26965.0996,0.0127,0.9996,-0.0287,192.0000,0.0000,48.0000,15.5000,32.0000,127.5000,8.0000,-11630.0000,5330.0000,23923.0000,1607234022.963130,2020-12-05 21:53:42.963133
180.000,-60667.4844,-51783.5352,-21133.1719,-11205.4209,-53208.5703,-16713.8516,-8245.8262,-17531.1660,0.0000,-9882.6221,-512.1678,0.0000,-24094.1953,-34882.7344,-20006.3535,-26798.5332,0.0127,0.9996,-0.0287,192.0000,0.0000,0.0000,0.0000,0.0000,0.0000,0.0000,-11630.0000,5330.0000,23923.0000,1607234022.969870,2020-12-05 21:53:42.969866
182.000,-60685.3203,-51761.0039,-21135.9883,-11073.7246,-53273.3711,-16555.8926,-8299.0010,-17490.8203,0.0000,-10115.8848,-604.4359,0.0000,-24262.3027,-35164.7695,-20125.4648,-26976.6094,0.0127,0.9996,-0.0287,192.0000,0.0000,0.0000,0.0000,0.0000,0.0000,0.0000,-11630.0000,5330.0000,23923.0000,1607234022.976600,2020-12-05 21:53:42.976599
184.000,-60654.4727,-51773.4570,-21118.8223,-11192.6133,-53204.3477,-16676.4355,-8246.0947,-17503.6289,0.0000,-9799.8311,-492.8783,0.0000,-24088.3398,-34821.1797,-20007.9629,-26786.1055,0.0127,0.9996,-0.0287,192.0000,0.0000,0.0000,0.0000,0.0000,0.0000,0.0000,-11630.0000,5330.0000,23923.0000,1607234022.983330,2020-12-05 21:53:42.983333
186.000,-60680.0234,-51757.9453,-21135.0273,-11121.3340,-53285.5078,-16604.7754,-8316.2793,-17519.1406,0.0000,-10156.4531,-590.8460,0.0000,-24240.6445,-35170.2461,-20113.9316,-26985.7305,0.0127,0.9996,-0.0287,192.0000,0.0000,0.0000,0.0000,0.0000,0.0000,0.0000,-11630.0000,5330.0000,23923.0000,1607234022.990070,2020-12-05 21:53:42.990066
188.000,-60675.3711,-51799.7422,-21119.5820,-11199.5869,-53192.7930,-16649.3887,-8236.6846,-17483.1309,0.0000,-9789.5273,-500.8579,0.0000,-24103.3379,-34844.6914,-20017.1035,-26798.6895,0.0127,0.9996,-0.0287,192.0000,0.0000,0.0000,0.0000,0.0000,0.0000,0.0000,-11630.0000,5330.0000,23923.0000,1607234022.996800,2020-12-05 21:53:42.996799
190.000,-60681.6523,-51760.1328,-21146.1348,-11129.1123,-53283.0938,-16641.0742,-8312.1885,-17530.1816,0.0000,-10182.3594,-606.9616,0.0000,-24237.3145,-35164.9258,-20102.5332,-26989.3945,0.0100,0.9960,-0.0260,192.0000,0.0000,40.0000,15.5000,16.0000,127.5000,24.0000,-11630.0000,5330.0000,23923.0000,1607234023.003530,2020-12-05 21:53:43.003533
192.000,-60702.7969,-51826.1602,-21120.6328,-11166.9531,-53187.7852,-16598.1816,-8220.6133,-17431.2305,0.0000,-9747.1484,-514.4030,0.0000,-24126.0703,-34764.3359,-20021.9551,-26798.1094,0.0100,0.9960,-0.0260,192.0000,0.0000,0.0000,0.0000,0.0000,0.0000,0.0000,-11630.0000,5330.0000,23923.0000,1607234023.010270,2020-12-05 21:53:43.010266
194.000,-60674.3438,-51754.3438,-21155.1875,-11144.8477,-53295.7227,-16677.7090,-8310.2891,-17532.3047,0.0000,-10209.1367,-620.1715,0.0000,-24226.3398,-35168.9727,-20077.3867,-26976.9453,0.0100,0.9960,-0.0260,192.0000,0.0000,0.0000,0.0000,0.0000,0.0000,0.0000,-11630.0000,5330.0000,23923.0000,1607234023.017000,2020-12-05 21:53:43.016999
196.000,-60705.4375,-51822.2031,-21118.7324,-11149.1172,-53193.6641,-16560.8984,-8217.9316,-17407.6504,0.0000,-9735.6592,-521.7120,0.0000,-24151.4160,-34758.3711,-20034.0234,-26809.4863,0.0100,0.9960,-0.0260,192.0000,0.0000,0.0000,0.0000,0.0000,0.0000,0.0000,-11630.0000,5330.0000,23923.0000,1607234023.023800,2020-12-05 21:53:43.023799
198.000,-60667.4141,-51750.7227,-21146.4707,-11172.1611,-53295.2969,-16711.5723,-8304.3652,-17546.8125,0.0000,-10213.4951,-600.5466,0.0000,-24204.4355,-35166.8711,-20059.1035,-26960.4492,0.0100,0.9960,-0.0260,192.0000,0.0000,0.0000,0.0000,0.0000,0.0000,0.0000,-11630.0000,5330.0000,23923.0000,1607234023.030600,2020-12-05 21:53:43.030600
200.000,-60697.2773,-51803.1602,-21100.6719,-11115.5664,-53193.3516,-16527.8184,-8217.4170,-17403.8047,0.0000,-9734.5869,-516.0347,0.0000,-24160.2910,-34776.7422,-20040.6172,-26821.9355,0.0160,0.9920,-0.0280,192.0000,0.0000,64.0000,15.5000,0.0000,127.5000,16.0000,-11630.0000,5330.0000,23923.0000,1607234023.037400,2020-12-05 21:53:43.037400
202.000,-60643.7227,-51725.2188,-21143.7441,-11173.9717,-53285.3945,-16738.1250,-8304.0752,-17567.3535,0.0000,-10172.6807,-582.5311,0.0000,-24178.3496,-35109.7383,-20036.3496,-26929.5820,0.0160,0.9920,-0.0280,192.0000,0.0000,0.0000,0.0000,0.0000,0.0000,0.0000,-11630.0000,5330.0000,23923.0000,1607234023.044200,2020-12-05 21:53:43.044199
204.000,-60713.8398,-51822.6523,-21112.5625,-11102.9600,-53211.2109,-16498.3359,-8227.5430,-17400.8770,0.0000,-9751.1719,-527.3223,0.0000,-24194.4434,-34786.6875,-20057.5391,-26836.6660,0.0160,0.9920,-0.0280,192.0000,0.0000,0.0000,0.0000,0.0000,0.0000,0.0000,-11630.0000,5330.0000,23923.0000,1607234023.051000,2020-12-05 21:53:43.050999
206.000,-60646.1133,-51743.1250,-21152.0586,-11191.6074,-53293.0391,-16763.6289,-8306.6904,-17591.1133,0.0000,-10146.3955,-578.2843,0.0000,-24165.9004,-35064.0508,-20033.1973,-26911.4551,0.0160,0.9920,-0.0280,192.0000,0.0000,0.0000,0.0000,0.0000,0.0000,0.0000,-11630.0000,5330.0000,23923.0000,1607234023.057800,2020-12-05 21:53:43.057800
208.000,-60724.0781,-51831.4141,-21114.4414,-11088.7891,-53226.0078,-16484.8125,-8232.4375,-17406.0625,0.0000,-9784.0732,-540.3981,0.0000,-24222.4277,-34805.2188,-20079.0176,-26868.3164,0.0160,0.9920,-0.0280,192.0000,0.0000,0.0000,0.0000,0.0000,0.0000,0.0000,-11630.0000,5330.0000,23923.0000,1607234023.064600,2020-12-05 21:53:43.064599
210.000,-60642.1133,-51741.8281,-21155.5449,-11223.1904,-53285.4180,-16780.4824,-8306.8018,-17592.1641,0.0000,-10101.8701,-569.3660,0.0000,-24160.4922,-35025.6758,-20027.0273,-26900.8145,0.0080,0.9980,-0.0280,192.0000,0.0000,32.0000,15.5000,24.0000,127.5000,16.0000,-11630.0000,5330.0000,23923.0000,1607234023.071400,2020-12-05 21:53:43.071399
212.000,-60720.4570,-51820.3945,-21109.4121,-11079.6025,-53233.6484,-16476.2070,-8261.5176,-17398.1953,0.0000,-9825.3350,-558.8159,0.0000,-24249.6309,-34849.6328,-20101.5703,-26898.6914,0.0080,0.9980,-0.0280,192.0000,0.0000,0.0000,0.0000,0.0000,0.0000,0.0000,-11630.0000,5330.0000,23923.0000,1607234023.078200,2020-12-05 21:53:43.078199
214.000,-60635.9219,-51739.0352,-21132.0313,-11207.3428,-53264.2734,-16788.1035,-8299.4932,-17576.6289,0.0000,-10027.1709,-549.2271,0.0000,-24126.8301,-34959.1992,-20010.0859,-26873.7695,0.0080,0.9980,-0.0280,192.0000,0.0000,0.0000,0.0000,0.0000,0.0000,0.0000,-11630.0000,5330.0000,23923.0000,1607234023.085000,2020-12-05 21:53:43.085000
216.000,-60719.1367,-51799.2500,-21107.2441,-11044.6670,-53235.2578,-16477.2363,-8251.6152,-17386.1914,0.0000,-9864.2041,-556.6478,0.0000,-24246.9922,-34897.1289,-20093.1895,-26913.1543,0.0080,0.9980,-0.0280,192.0000,0.0000,0.0000,0.0000,0.0000,0.0000,0.0000,-11630.0000,5330.0000,23923.0000,1607234023.091800,2020-12-05 21:53:43.091799
218.000,-60657.5586,-51764.4688,-21139.3633,-11228.4209,-53247.7539,-16781.0859,-8284.2939,-17551.9980,0.0000,-9965.3457,-539.7946,0.0000,-24133.9375,-34910.8984,-19997.2109,-26847.0586,0.0080,0.9980,-0.0280,192.0000,0.0000,0.0000,0.0000,0.0000,0.0000,0.0000,-11630.0000,5330.0000,23923.0000,1607234023.098600,2020-12-05 21:53:43.098599
220.000,-60721.4180,-51801.8203,-21127.0469,-11057.2285,-53249.7422,-16501.3320,-8276.2920,-17404.6094,0.0000,-9936.4678,-584.0063,0.0000,-24274.2168,-34955.7148,-20103.1797,-26950.7266,0.0060,0.9940,-0.0320,192.0000,0.0000,24.0000,15.5000,8.0000,127.5000,0.0000,-11630.0000,5330.0000,23923.0000,1607234023.105400,2020-12-05 21:53:43.105399
222.000,-60659.4141,-51771.5547,-21153.9805,-11221.2686,-53244.5352,-16759.9863,-8278.3486,-17526.2266,0.0000,-9926.0518,-542.2980,0.0000,-24127.9473,-34874.3750,-20005.1016,-26834.2969,0.0060,0.9940,-0.0320,192.0000,0.0000,0.0000,0.0000,0.0000,0.0000,0.0000,-11630.0000,5330.0000,23923.0000,1607234023.112200,2020-12-05 21:53:43.112200
224.000,-60722.0430,-51799.1172,-21141.4629,-11059.7100,-53271.4688,-16522.8105,-8291.1563,-17420.3672,0.0000,-9984.4121,-598.4456,0.0000,-24274.2168,-34992.2813,-20103.7832,-26962.8418,0.0060,0.9940,-0.0320,192.0000,0.0000,0.0000,0.0000,0.0000,0.0000,0.0000,-11630.0000,5330.0000,23923.0000,1607234023.119000,2020-12-05 21:53:43.118999
226.000,-60659.1914,-51773.9688,-21150.4941,-11208.9971,-53225.6055,-16732.0469,-8257.8740,-17504.3652,0.0000,-9837.3154,-524.0814,0.0000,-24116.2344,-34783.3359,-20000.0488,-26814.5156,0.0060,0.9940,-0.0320,192.0000,0.0000,0.0000,0.0000,0.0000,0.0000,0.0000,-11630.0000,5330.0000,23923.0000,1607234023.125800,2020-12-05 21:53:43.125799
228.000,-60692.4961,-51772.1367,-21141.7988,-11070.4160,-53260.6055,-16558.9102,-8294.2402,-17449.6035,0.0000,-10058.3516,-596.2328,0.0000,-24281.1230,-35041.2773,-20113.3730,-26974.7539,0.0060,0.9940,-0.0320,192.0000,0.0000,0.0000,0.0000,0.0000,0.0000,0.0000,-11630.0000,5330.0000,23923.0000,1607234023.132600,2020-12-05 21:53:43.132600
230.000,-60678.0117,-51802.2891,-21136.6133,-11216.7305,-53202.0898,-16703.3691,-8254.5215,-17498.2637,0.0000,-9782.7773,-515.6100,0.0000,-24123.0977,-34752.7813,-20003.6934,-26804.0996,0.0100,0.9940,-0.0320,192.0000,0.0000,40.0000,15.5000,8.0000,127.5000,0.0000,-11630.0000,5330.0000,23923.0000,1607234023.139400,2020-12-05 21:53:43.139400
232.000,-60692.5391,-51766.0352,-21142.0898,-11093.3936,-53272.5195,-16594.9395,-8312.9932,-17488.4297,0.0000,-10106.0947,-618.0704,0.0000,-24274.4180,-35085.4883,-20119.8555,-26993.3281,0.0100,0.9940,-0.0320,192.0000,0.0000,0.0000,0.0000,0.0000,0.0000,0.0000,-11630.0000,5330.0000,23923.0000,1607234023.146200,2020-12-05 21:53:43.146199
234.000,-60681.4531,-51796.8594,-21129.4824,-11187.1152,-53197.2383,-16664.8125,-8249.4248,-17479.8008,0.0000,-9730.7422,-508.7033,0.0000,-24121.8457,-34715.9219,-20018.3105,-26795.8516,0.0100,0.9940,-0.0320,192.0000,0.0000,0.0000,0.0000,0.0000,0.0000,0.0000,-11630.0000,5330.0000,23923.0000,1607234023.153000,2020-12-05 21:53:43.152999
236.000,-60676.9609,-51757.3633,-21148.8613,-11110.0234,-53277.7070,-16631.7754,-8314.9600,-17513.8438,0.0000,-10141.7461,-608.8615,0.0000,-24258.3926,-35096.4844,-20106.9141,-26989.0371,0.0100,0.9940,-0.0320,192.0000,0.0000,0.0000,0.0000,0.0000,0.0000,0.0000,-11630.0000,5330.0000,23923.0000,1607234023.159800,2020-12-05 21:53:43.159800
238.000,-60703.3555,-51820.7070,-21143.7441,-11172.9219,-53208.7070,-16624.1309,-8242.0039,-17457.1582,0.0000,-9696.5439,-514.0901,0.0000,-24143.8848,-34710.6055,-20030.8047,-26801.5742,0.0100,0.9940,-0.0320,192.0000,0.0000,0.0000,0.0000,0.0000,0.0000,0.0000,-11630.0000,5330.0000,23923.0000,1607234023.166600,2020-12-05 21:53:43.166599
240.000,-60671.9102,-51751.5508,-21182.0762,-11128.6650,-53300.9063,-16683.2520,-8331.8584,-17553.2930,0.0000,-10163.2041,-618.1822,0.0000,-24249.5859,-35103.7266,-20104.0977,-26993.9551,0.0140,0.9900,-0.0280,192.0000,0.0000,56.0000,15.0000,120.0000,127.5000,16.0000,-11630.0000,5330.0000,23923.0000,1607234023.173400,2020-12-05 21:53:43.173399
242.000,-60683.5742,-51801.5313,-21104.4043,-11120.9092,-53184.4336,-16580.6582,-8229.3975,-17441.5117,0.0000,-9679.2666,-508.5245,0.0000,-24154.3672,-34687.7617,-20043.1660,-26809.2617,0.0140,0.9900,-0.0280,192.0000,0.0000,0.0000,0.0000,0.0000,0.0000,0.0000,-11630.0000,5330.0000,23923.0000,1607234023.180200,2020-12-05 21:53:43.180199
244.000,-60665.6055,-51750.7031,-21150.3379,-11150.8154,-53280.0742,-16716.7793,-8324.7285,-17572.0918,0.0000,-10174.4463,-599.5855,0.0000,-24213.5098,-35092.9297,-20064.5117,-26965.7910,0.0140,0.9900,-0.0280,192.0000,0.0000,0.0000,0.0000,0.0000,0.0000,0.0000,-11630.0000,5330.0000,23923.0000,1607234023.187000,2020-12-05 21:53:43.187000
246.000,-60711.7852,-51824.1719,-21110.9980,-11125.9385,-53187.5156,-16551.0195,-8232.6162,-17428.4375,0.0000,-9684.6973,-534.0055,0.0000,-24185.2793,-34705.2188,-20046.9883,-26824.6172,0.0140,0.9900,-0.0280,192.0000,0.0000,0.0000,0.0000,0.0000,0.0000,0.0000,-11630.0000,5330.0000,23923.0000,1607234023.193800,2020-12-05 21:53:43.193799
248.000,-60649.7813,-51732.8867,-21156.8633,-11175.8047,-53277.3047,-16741.7910,-8313.6641,-17574.7734,0.0000,-10135.1748,-598.0209,0.0000,-24201.0605,-35067.0703,-20039.5234,-26942.0547,0.0140,0.9900,-0.0280,192.0000,0.0000,0.0000,0.0000,0.0000,0.0000,0.0000,-11630.0000,5330.0000,23923.0000,1607234023.200600,2020-12-05 21:53:43.200599
250.000,-60727.5625,-51838.6328,-21133.7305,-11112.7061,-53205.8906,-16520.4648,-8240.0820,-17414.8691,0.0000,-9690.5762,-550.4788,0.0000,-24225.7363,-34724.7734,-20068.9609,-26844.8242,0.0100,0.9860,-0.0220,192.0000,0.0000,40.0000,15.0000,104.0000,127.5000,40.0000,-11630.0000,5330.0000,23923.0000,1607234023.207400,2020-12-05 21:53:43.207399
252.000,-60662.3398,-51755.9102,-21167.4355,-11198.7822,-53275.5586,-16763.5840,-8312.3008,-17583.1563,0.0000,-10126.5244,-603.0277,0.0000,-24188.7227,-35035.2852,-20030.4023,-26926.4082,0.0100,0.9860,-0.0220,192.0000,0.0000,0.0000,0.0000,0.0000,0.0000,0.0000,-11630.0000,5330.0000,23923.0000,1607234023.214200,2020-12-05 21:53:43.214200
254.000,-60733.7539,-51840.5781,-21140.5254,-11107.7217,-53214.5391,-16489.4395,-8234.7178,-17399.3125,0.0000,-9743.5947,-556.7596,0.0000,-24226.2285,-34757.7422,-20071.0391,-26859.2852,0.0100,0.9860,-0.0220,192.0000,0.0000,0.0000,0.0000,0.0000,0.0000,0.0000,-11630.0000,5330.0000,23923.0000,1607234023.221000,2020-12-05 21:53:43.220999
0.000,-60646.1133,-51742.5664,-21174.9688,-11209.3545,-53286.1758,-16779.6543,-8312.3896,-17597.7734,0.0000,-10086.6709,-580.5418,0.0000,-24169.6563,-34998.1367,-20019.4277,-26896.5684,0.0100,0.9860,-0.0220,192.0000,0.0000,0.0000,0.0000,0.0000,0.0000,0.0000,-11630.0000,5330.0000,23923.0000,1607234023.235430,2020-12-05 21:53:43.235428
2.000,-60717.8867,-51816.2383,-21126.4434,-11060.2686,-53221.7148,-16476.9004,-8240.6631,-17406.9570,0.0000,-9764.1582,-566.3261,0.0000,-24257.5195,-34791.4727,-20090.5293,-26878.1504,0.0100,0.9860,-0.0220,192.0000,0.0000,0.0000,0.0000,0.0000,0.0000,0.0000,-11630.0000,5330.0000,23923.0000,1607234023.249860,2020-12-05 21:53:43.249857
4.000,-60632.6797,-51745.3828,-21151.1641,-11214.9873,-53266.7539,-16793.4238,-8299.6494,-17609.7539,0.0000,-10026.6572,-556.9608,0.0000,-24150.0762,-34914.6992,-20005.5488,-26865.3652,0.0100,0.9860,-0.0180,192.0000,0.0000,40.0000,15.0000,104.0000,127.5000,56.0000,-11630.0000,5330.0000,23923.0000,1607234023.264290,2020-12-05 21:53:43.264285
6.000,-60730.8711,-51818.1602,-21128.9023,-11061.0508,-53242.7695,-16483.7852,-8259.4160,-17432.6621,0.0000,-9823.5918,-569.6566,0.0000,-24269.0762,-34839.3711,-20100.3652,-26909.1074,0.0100,0.9860,-0.0180,192.0000,0.0000,0.0000,0.0000,0.0000,0.0000,0.0000,-11630.0000,5330.0000,23923.0000,1607234023.278710,2020-12-05 21:53:43.278714
8.000,-60675.3281,-51778.5508,-21168.2188,-11237.2725,-53270.0391,-16785.1543,-8287.1768,-17599.2930,0.0000,-9962.7305,-568.0696,0.0000,-24152.6016,-34851.8672,-20007.1133,-26849.0703,0.0100,0.9860,-0.0180,192.0000,0.0000,0.0000,0.0000,0.0000,0.0000,0.0000,-11630.0000,5330.0000,23923.0000,1607234023.293140,2020-12-05 21:53:43.293142
10.000,-60734.4258,-51828.2188,-21146.6270,-11082.7324,-53262.7539,-16499.4980,-8267.7539,-17446.4297,0.0000,-9897.8887,-603.5194,0.0000,-24283.3809,-34882.5117,-20118.7383,-26940.5117,0.0100,0.9860,-0.0180,192.0000,0.0000,0.0000,0.0000,0.0000,0.0000,0.0000,-11630.0000,5330.0000,23923.0000,1607234023.307570,2020-12-05 21:53:43.307571
12.000,-60663.4609,-51779.5352,-21163.8379,-11235.4619,-53252.0898,-16770.2676,-8274.7500,-17581.8809,0.0000,-9904.3486,-551.0822,0.0000,-24133.4004,-34812.0156,-20008.8125,-26836.9570,0.0100,0.9860,-0.0180,192.0000,0.0000,0.0000,0.0000,0.0000,0.0000,0.0000,-11630.0000,5330.0000,23923.0000,1607234023.322000,2020-12-05 21:53:43.322000
14.000,-60728.4805,-51813.1289,-21147.0742,-11074.1719,-53268.9883,-16521.6270,-8276.2920,-17461.6953,0.0000,-9963.7588,-615.8799,0.0000,-24302.4023,-34937.1836,-20114.6699,-26960.8301,0.0100,0.9940,-0.0160,192.0000,0.0000,40.0000,15.5000,8.0000,127.5000,64.0000,-11630.0000,5330.0000,23923.0000,1607234023.328730,2020-12-05 21:53:43.328733
16.000,-60663.9727,-51782.3945,-21153.6680,-11212.6406,-53244.1563,-16740.0039,-8249.3135,-17543.7051,0.0000,-9838.5000,-543.8626,0.0000,-24141.1348,-34752.1328,-19994.9531,-26812.2344,0.0100,0.9940,-0.0160,192.0000,0.0000,0.0000,0.0000,0.0000,0.0000,0.0000,-11630.0000,5330.0000,23923.0000,1607234023.335470,2020-12-05 21:53:43.335466
18.000,-60704.7188,-51786.8672,-21146.1582,-11071.8467,-53283.7188,-16549.7012,-8291.8262,-17479.9805,0.0000,-10007.3447,-607.0957,0.0000,-24285.6621,-34974.4219,-20118.1563,-26970.6426,0.0100,0.9940,-0.0160,192.0000,0.0000,0.0000,0.0000,0.0000,0.0000,0.0000,-11630.0000,5330.0000,23923.0000,1607234023.342200,2020-12-05 21:53:43.342200
20.000,-60668.7773,-51787.7617,-21139.5645,-11214.1377,-53226.6523,-16723.6426,-8263.2158,-17539.3008,0.0000,-9786.3311,-524.4613,0.0000,-24127.6563,-34706.1563,-20006.1973,-26806.2676,0.0100,0.9940,-0.0160,192.0000,0.0000,0.0000,0.0000,0.0000,0.0000,0.0000,-11630.0000,5330.0000,23923.0000,1607234023.348930,2020-12-05 21:53:43.348933
22.000,-60704.6094,-51787.7617,-21154.6289,-11103.2510,-53285.3516,-16590.5586,-8315.3184,-17510.8926,0.0000,-10076.7695,-618.0480,0.0000,-24278.7539,-35017.7188,-20116.5918,-26990.0879,0.0100,0.9940,-0.0160,192.0000,0.0000,0.0000,0.0000,0.0000,0.0000,0.0000,-11630.0000,5330.0000,23923.0000,1607234023.355670,2020-12-05 21:53:43.355666
24.000,-60690.6406,-51813.4414,-21127.5391,-11210.0928,-53211.8125,-16684.3027,-8250.0732,-17507.2266,0.0000,-9737.8721,-530.4292,0.0000,-24140.0391,-34701.3281,-20013.6621,-26802.9375,0.0090,0.9950,-0.0220,192.0000,0.0000,32.0000,15.5000,16.0000,127.5000,16.0000,-11630.0000,5330.0000,23923.0000,1607234023.362400,2020-12-05 21:53:43.362400
26.000,-60697.6797,-51770.6172,-21147.0078,-11114.8066,-53288.2109,-16628.1543,-8324.1250,-17533.6465,0.0000,-10096.5732,-627.2570,0.0000,-24284.7676,-35029.9414,-20096.8770,-26991.0723,0.0090,0.9950,-0.0220,192.0000,0.0000,0.0000,0.0000,0.0000,0.0000,0.0000,-11630.0000,5330.0000,23923.0000,1607234023.369130,2020-12-05 21:53:43.369133
28.000,-60712.1641,-51830.0938,-21138.5352,-11191.7637,-53210.8750,-16639.1738,-8241.9824,-17477.0078,0.0000,-9686.9775,-521.3768,0.0000,-24140.1504,-34643.9727,-20022.5586,-26803.0039,0.0090,0.9950,-0.0220,192.0000,0.0000,0.0000,0.0000,0.0000,0.0000,0.0000,-11630.0000,5330.0000,23923.0000,1607234023.375870,2020-12-05 21:53:43.375866
30.000,-60682.7500,-51756.1992,-21156.5957,-11142.4111,-53303.8125,-16659.7832,-8319.4531,-17536.4844,0.0000,-10139.3545,-625.4241,0.0000,-24268.8301,-35047.0664,-20099.1133,-26989.5293,0.0090,0.9950,-0.0220,192.0000,0.0000,0.0000,0.0000,0.0000,0.0000,0.0000,-11630.0000,5330.0000,23923.0000,1607234023.382600,2020-12-05 21:53:43.382600
32.000,-60701.1016,-51819.9688,-21115.5352,-11149.3623,-53199.5430,-16593.2871,-8231.4766,-17440.5293,0.0000,-9662.4131,-509.7762,0.0000,-24159.6875,-34625.5547,-20031.3867,-26792.7891,0.0090,0.9950,-0.0220,192.0000,0.0000,0.0000,0.0000,0.0000,0.0000,0.0000,-11630.0000,5330.0000,23923.0000,1607234023.389330,2020-12-05 21:53:43.389333
34.000,-60665.0703,-51746.4102,-21152.4609,-11152.5146,-53299.1641,-16701.2461,-8328.9082,-17563.9102,0.0000,-10140.7178,-613.0189,0.0000,-24250.6133,-35033.6758,-20077.5664,-26963.4004,0.0095,0.9955,-0.0270,192.0000,0.0000,40.0000,15.5000,16.0000,127.5000,0.0000,-11630.0000,5330.0000,23923.0000,1607234023.396070,2020-12-05 21:53:43.396066
36.000,-60716.3672,-51829.9609,-21134.3105,-11147.7754,-53205.7539,-16552.0703,-8232.9746,-17421.4180,0.0000,-9659.7754,-532.2173,0.0000,-24194.1523,-34638.7422,-20049.8945,-26808.6152,0.0095,0.9955,-0.0270,192.0000,0.0000,0.0000,0.0000,0.0000,0.0000,0.0000,-11630.0000,5330.0000,23923.0000,1607234023.402800,2020-12-05 21:53:43.402800
38.000,-60658.1172,-51742.8320,-21150.2031,-11183.7617,-53295.2969,-16728.6934,-8328.5723,-17571.5781,0.0000,-10139.8242,-607.3192,0.0000,-24215.7227,-35030.2578,-20057.4492,-26944.8262,0.0095,0.9955,-0.0270,192.0000,0.0000,0.0000,0.0000,0.0000,0.0000,0.0000,-11630.0000,5330.0000,23923.0000,1607234023.409530,2020-12-05 21:53:43.409533
40.000,-60717.9766,-51829.3125,-21120.2969,-11126.1172,-53196.1445,-16525.0020,-8236.5283,-17413.4395,0.0000,-9679.6016,-537.7382,0.0000,-24218.2715,-34657.0508,-20057.8516,-26829.4688,0.0095,0.9955,-0.0270,192.0000,0.0000,0.0000,0.0000,0.0000,0.0000,0.0000,-11630.0000,5330.0000,23923.0000,1607234023.416270,2020-12-05 21:53:43.416266
42.000,-60651.9922,-51745.0234,-21157.4453,-11206.3369,-53273.2109,-16749.6816,-8315.0947,-17574.6836,0.0000,-10119.8633,-591.2260,0.0000,-24202.2441,-34995.7891,-20032.7285,-26923.2344,0.0095,0.9955,-0.0270,192.0000,0.0000,0.0000,0.0000,0.0000,0.0000,0.0000,-11630.0000,5330.0000,23923.0000,1607234023.423000,2020-12-05 21:53:43.423000
44.000,-60732.9297,-51841.5625,-21115.8926,-11105.5752,-53204.4141,-16495.0508,-8236.2373,-17400.6543,0.0000,-9706.9150,-547.7295,0.0000,-24223.3008,-34693.7070,-20058.7676,-26848.6914,0.0118,0.9938,-0.0285,192.0000,0.0000,56.0000,15.5000,0.0000,127.5000,8.0000,-11630.0000,5330.0000,23923.0000,1607234023.429800,2020-12-05 21:53:43.429800
46.000,-60662.3633,-51760.6484,-21158.6074,-11221.9609,-53284.9492,-16772.8164,-8315.2285,-17587.2012,0.0000,-10091.2314,-593.9976,0.0000,-24186.0840,-34969.0781,-20018.5352,-26903.9668,0.0118,0.9938,-0.0285,192.0000,0.0000,0.0000,0.0000,0.0000,0.0000,0.0000,-11630.0000,5330.0000,23923.0000,1607234023.436600,2020-12-05 21:53:43.436600
48.000,-60727.0938,-51832.7773,-21115.7598,-11091.4941,-53210.6953,-16480.1191,-8247.9277,-17403.7148,0.0000,-9758.5029,-560.0229,0.0000,-24241.8750,-34748.6250,-20077.8789,-26874.0156,0.0118,0.9938,-0.0285,192.0000,0.0000,0.0000,0.0000,0.0000,0.0000,0.0000,-11630.0000,5330.0000,23923.0000,1607234023.443400,2020-12-05 21:53:43.443400
50.000,-60647.3203,-51752.7578,-21142.9160,-11218.0498,-53272.3203,-16784.9531,-8307.2490,-17590.1973,0.0000,-10046.4834,-560.3582,0.0000,-24153.5625,-34920.7109,-20007.6934,-26878.0156,0.0118,0.9938,-0.0285,192.0000,0.0000,0.0000,0.0000,0.0000,0.0000,0.0000,-11630.0000,5330.0000,23923.0000,1607234023.450200,2020-12-05 21:53:43.450200
52.000,-60730.4688,-51827.0547,-21110.1270,-11068.1592,-53234.1406,-16480.3652,-8262.0088,-17411.4277,0.0000,-9816.3721,-558.9948,0.0000,-24259.1289,-34806.1797,-20086.5059,-26906.0684,0.0118,0.9938,-0.0285,192.0000,0.0000,0.0000,0.0000,0.0000,0.0000,0.0000,-11630.0000,5330.0000,23923.0000,1607234023.457000,2020-12-05 21:53:43.457000
54.000,-60665.4727,-51774.1055,-21150.4043,-11224.2188,-53264.6758,-16776.5703,-8291.8262,-17570.5723,0.0000,-9984.9043,-560.1794,0.0000,-24172.3594,-34890.5586,-19996.4063,-26865.6328,0.0139,0.9909,-0.0273,192.0000,0.0000,64.0000,15.0000,112.0000,127.5000,24.0000,-11630.0000,5330.0000,23923.0000,1607234023.463800,2020-12-05 21:53:43.463800
56.000,-60744.7070,-51835.3906,-21133.4395,-11058.3906,-53255.4414,-16478.8906,-8257.9639,-17405.2578,0.0000,-9873.6143,-582.3076,0.0000,-24274.8438,-34867.4922,-20090.9980,-26927.6367,0.0139,0.9909,-0.0273,192.0000,0.0000,0.0000,0.0000,0.0000,0.0000,0.0000,-11630.0000,5330.0000,23923.0000,1607234023.470600,2020-12-05 21:53:43.470600
58.000,-60659.6367,-51774.8633,-21150.4941,-11222.5645,-53261.5000,-16766.0645,-8274.6602,-17552.9805,0.0000,-9934.2324,-551.4175,0.0000,-24139.1016,-34839.1055,-19987.8242,-26843.1484,0.0139,0.9909,-0.0273,192.0000,0.0000,0.0000,0.0000,0.0000,0.0000,0.0000,-11630.0000,5330.0000,23923.0000,1607234023.477400,2020-12-05 21:53:43.477400
60.000,-60711.6953,-51797.7500,-21124.2754,-11054.7031,-53260.0469,-16503.0527,-8276.4258,-17429.3535,0.0000,-9929.3379,-585.8839,0.0000,-24288.6777,-34929.4063,-20089.5234,-26950.9941,0.0139,0.9909,-0.0273,192.0000,0.0000,0.0000,0.0000,0.0000,0.0000,0.0000,-11630.0000,5330.0000,23923.0000,1607234023.484200,2020-12-05 21:53:43.484200
62.000,-60653.0664,-51767.8906,-21124.2539,-11208.6396,-53235.9961,-16748.2734,-8269.4297,-17541.8945,0.0000,-9862.2822,-518.7169,0.0000,-24120.0801,-34781.1445,-19983.0840,-26823.5000,0.0139,0.9909,-0.0273,192.0000,0.0000,0.0000,0.0000,0.0000,0.0000,0.0000,-11630.0000,5330.0000,23923.0000,1607234023.491000,2020-12-05 21:53:43.491000
64.000,-60723.8086,-51797.7500,-21129.2598,-11057.6982,-53270.5977,-16531.2598,-8288.5186,-17445.8262,0.0000,-9995.5430,-589.9966,0.0000,-24286.4219,-34963.0898,-20089.4336,-26969.4805,0.0139,0.9904,-0.0266,192.0000,0.0000,56.0000,15.0000,120.0000,127.5000,24.0000,-11630.0000,5330.0000,23923.0000,1607234023.497800,2020-12-05 21:53:43.497800
66.000,-60692.2930,-51807.3203,-21151.3652,-11207.2988,-53240.0859,-16717.4512,-8260.0869,-17510.5117,0.0000,-9816.3496,-528.5964,0.0000,-24139.1016,-34720.8867,-19979.9785,-26809.7988,0.0139,0.9904,-0.0266,192.0000,0.0000,0.0000,0.0000,0.0000,0.0000,0.0000,-11630.0000,5330.0000,23923.0000,1607234023.504600,2020-12-05 21:53:43.504600
68.000,-60726.3789,-51798.4688,-21160.5977,-11079.9160,-53309.7813,-16570.8906,-8313.3066,-17472.6719,0.0000,-10086.9395,-627.9276,0.0000,-24323.5254,-35017.5820,-20109.7305,-26996.4141,0.0139,0.9904,-0.0266,192.0000,0.0000,0.0000,0.0000,0.0000,0.0000,0.0000,-11630.0000,5330.0000,23923.0000,1607234023.511400,2020-12-05 21:53:43.511399
70.000,-60698.6875,-51816.1250,-21137.6426,-11184.0303,-53232.7773,-16673.8867,-8242.1611,-17486.7754,0.0000,-9771.6904,-538.3865,0.0000,-24156.5801,-34676.0469,-19992.2051,-26801.4844,0.0139,0.9904,-0.0266,192.0000,0.0000,0.0000,0.0000,0.0000,0.0000,0.0000,-11630.0000,5330.0000,23923.0000,1607234023.518200,2020-12-05 21:53:43.518200
72.000,-60688.2461,-51759.2188,-21144.6387,-11068.4268,-53305.5547,-16594.6270,-8309.1709,-17503.0684,0.0000,-10118.4775,-617.8022,0.0000,-24288.1426,-35015.3477,-20094.0391,-26985.4844,0.0139,0.9904,-0.0266,192.0000,0.0000,0.0000,0.0000,0.0000,0.0000,0.0000,-11630.0000,5330.0000,23923.0000,1607234023.525000,2020-12-05 21:53:43.525000
74.000,-60688.8750,-51802.1758,-21116.8320,-11149.1836,-53221.3789,-16637.4082,-8245.4912,-17476.3359,0.0000,-9727.1436,-504.5459,0.0000,-24141.4023,-34634.3398,-19994.5508,-26787.8945,0.0120,0.9932,-0.0253,192.0000,0.0000,40.0000,15.5000,16.0000,127.5000,32.0000,-11630.0000,5330.0000,23923.0000,1607234023.537750,2020-12-05 21:53:43.537750
76.000,-60699.1992,-51776.2500,-21165.6035,-11097.6182,-53317.1133,-16645.5449,-8320.9502,-17535.5020,0.0000,-10169.3057,-617.7798,0.0000,-24297.4414,-35034.6133,-20094.2617,-26989.1055,0.0120,0.9932,-0.0253,192.0000,0.0000,0.0000,0.0000,0.0000,0.0000,0.0000,-11630.0000,5330.0000,23923.0000,1607234023.550500,2020-12-05 21:53:43.550500
78.000,-60719.2500,-51838.9922,-21127.5605,-11150.2793,-53229.6484,-16603.7461,-8238.7861,-17454.2754,0.0000,-9734.1621,-530.9210,0.0000,-24181.1230,-34630.7852,-20027.4980,-26806.3789,0.0120,0.9932,-0.0253,192.0000,0.0000,0.0000,0.0000,0.0000,0.0000,0.0000,-11630.0000,5330.0000,23923.0000,1607234023.563250,2020-12-05 21:53:43.563250
80.000,-60687.1289,-51759.6406,-21153.6680,-11126.3184,-53311.7031,-16682.7148,-8326.6729,-17551.7734,0.0000,-10206.4766,-630.5874,0.0000,-24264.0469,-35036.9180,-20079.5781,-26984.3438,0.0120,0.9932,-0.0253,192.0000,0.0000,0.0000,0.0000,0.0000,0.0000,0.0000,-11630.0000,5330.0000,23923.0000,1607234023.576000,2020-12-05 21:53:43.576000
82.000,-60730.7148,-51841.0234,-21131.8086,-11123.6357,-53211.9922,-16566.0625,-8238.5625,-17433.4434,0.0000,-9722.1816,-531.7480,0.0000,-24188.7441,-34617.5977,-20032.5938,-26810.8711,0.0120,0.9932,-0.0253,192.0000,0.0000,0.0000,0.0000,0.0000,0.0000,0.0000,-11630.0000,5330.0000,23923.0000,1607234023.588750,2020-12-05 21:53:43.588750
84.000,-60681.2734,-51760.6484,-21172.6445,-11149.1387,-53320.2422,-16719.4844,-8326.8516,-17578.9082,0.0000,-10217.8535,-624.0160,0.0000,-24249.2734,-35009.4023,-20068.3340,-26964.6523,0.0120,0.9946,-0.0257,192.0000,0.0000,48.0000,15.5000,16.0000,127.5000,24.0000,-11630.0000,5330.0000,23923.0000,1607234023.601500,2020-12-05 21:53:43.601500
86.000,-60741.7813,-51851.6406,-21139.2070,-11104.1006,-53225.7148,-16530.6348,-8236.8857,-17418.4453,0.0000,-9736.3076,-539.5711,0.0000,-24214.8965,-34616.4375,-20052.1738,-26829.6035,0.0120,0.9946,-0.0257,192.0000,0.0000,0.0000,0.0000,0.0000,0.0000,0.0000,-11630.0000,5330.0000,23923.0000,1607234023.614250,2020-12-05 21:53:43.614250
88.000,-60672.9141,-51757.1836,-21177.5176,-11172.3398,-53319.8828,-16748.1172,-8328.4834,-17585.4355,0.0000,-10198.0059,-622.9655,0.0000,-24246.1426,-34958.8633,-20059.1914,-26951.1953,0.0120,0.9946,-0.0257,192.0000,0.0000,0.0000,0.0000,0.0000,0.0000,0.0000,-11630.0000,5330.0000,23923.0000,1607234023.627000,2020-12-05 21:53:43.627000
90.000,-60734.3828,-51836.1523,-21123.6934,-11072.3613,-53222.1602,-16503.3652,-8237.3779,-17406.2188,0.0000,-9758.6592,-544.0191,0.0000,-24234.8105,-34625.8477,-20071.2402,-26850.0098,0.0120,0.9946,-0.0257,192.0000,0.0000,0.0000,0.0000,0.0000,0.0000,0.0000,-11630.0000,5330.0000,23923.0000,1607234023.633800,2020-12-05 21:53:43.633800
92.000,-60672.1523,-51762.0547,-21172.6660,-11188.9922,-53319.1250,-16780.9297,-8320.9727,-17596.5898,0.0000,-10156.7441,-596.6351,0.0000,-24206.4238,-34900.3047,-20032.8848,-26923.0547,0.0120,0.9946,-0.0257,192.0000,0.0000,0.0000,0.0000,0.0000,0.0000,0.0000,-11630.0000,5330.0000,23923.0000,1607234023.640600,2020-12-05 21:53:43.640600
94.000,-60733.7109,-51834.9688,-21110.7070,-11050.7246,-53232.5781,-16491.6758,-8242.0264,-17403.0000,0.0000,-9788.3428,-569.9024,0.0000,-24274.7754,-34645.2266,-20079.2871,-26879.8496,0.0120,0.9943,-0.0228,192.0000,0.0000,48.0000,15.5000,8.0000,127.5000,48.0000,-11630.0000,5330.0000,23923.0000,1607234023.647400,2020-12-05 21:53:43.647400
96.000,-60659.1250,-51754.5898,-21152.0371,-11184.2539,-53294.6719,-16784.6621,-8310.4453,-17595.0469,0.0000,-10095.7910,-577.9044,0.0000,-24174.7969,-34819.7031,-20007.9629,-26892.1426,0.0120,0.9943,-0.0228,192.0000,0.0000,0.0000,0.0000,0.0000,0.0000,0.0000,-11630.0000,5330.0000,23923.0000,1607234023.654200,2020-12-05 21:53:43.654200
98.000,-60769.2266,-51857.0742,-21155.3887,-11053.1162,-53269.8359,-16479.9180,-8256.2197,-17398.7305,0.0000,-9831.8838,-577.6808,0.0000,-24279.6719,-34655.4414,-20084.6055,-26896.0762,0.0120,0.9943,-0.0228,192.0000,0.0000,0.0000,0.0000,0.0000,0.0000,0.0000,-11630.0000,5330.0000,23923.0000,1607234023.661000,2020-12-05 21:53:43.661000
100.000,-60686.5703,-51780.2266,-21184.6250,-11210.3828,-53310.4063,-16785.3555,-8299.2920,-17573.6777,0.0000,-10054.9541,-595.1599,0.0000,-24189.9512,-34746.0547,-20010.6895,-26873.7910,0.0120,0.9943,-0.0228,192.0000,0.0000,0.0000,0.0000,0.0000,0.0000,0.0000,-11630.0000,5330.0000,23923.0000,1607234023.667800,2020-12-05 21:53:43.667800
102.000,-60749.6914,-51825.8047,-21148.3926,-11039.4814,-53276.2969,-16485.4609,-8266.8369,-17409.5488,0.0000,-9889.5068,-589.7731,0.0000,-24301.9551,-34675.1758,-20094.4863,-26918.9434,0.0120,0.9943,-0.0228,192.0000,0.0000,0.0000,0.0000,0.0000,0.0000,0.0000,-11630.0000,5330.0000,23923.0000,1607234023.674600,2020-12-05 21:53:43.674600
104.000,-60671.5273,-51769.1641,-21167.8164,-11208.6396,-53286.8047,-16782.2480,-8287.7803,-17567.2188,0.0000,-9984.4570,-563.6886,0.0000,-24183.8945,-34668.2266,-20005.7500,-26847.1719,0.0120,0.9943,-0.0228,192.0000,0.0000,0.0000,0.0000,0.0000,0.0000,0.0000,-11630.0000,5330.0000,23923.0000,1607234023.681400,2020-12-05 21:53:43.681400
106.000,-60743.1211,-51822.3398,-21152.2383,-11040.1748,-53281.1914,-16502.8066,-8282.5059,-17422.3125,0.0000,-9947.0625,-600.4572,0.0000,-24300.2793,-34716.4805,-20116.0547,-26940.7793,0.0080,0.9900,-0.0180,192.0000,0.0000,32.0000,15.0000,120.0000,127.5000,56.0000,-11630.0000,5330.0000,23923.0000,1607234023.688200,2020-12-05 21:53:43.688199
108.000,-60674.3008,-51785.1250,-21154.0469,-11205.1748,-53266.9766,-16761.6172,-8277.8789,-17549.8066,0.0000,-9913.1992,-549.3835,0.0000,-24142.9902,-34590.4180,-20003.5586,-26822.1816,0.0080,0.9900,-0.0180,192.0000,0.0000,0.0000,0.0000,0.0000,0.0000,0.0000,-11630.0000,5330.0000,23923.0000,1607234023.695000,2020-12-05 21:53:43.695000
110.000,-60733.1523,-51816.7734,-21147.4980,-11053.5410,-53289.8867,-16526.0977,-8293.7705,-17452.3301,0.0000,-10011.4580,-622.1608,0.0000,-24323.5918,-34737.6484,-20115.4512,-26962.9746,0.0080,0.9900,-0.0180,192.0000,0.0000,0.0000,0.0000,0.0000,0.0000,0.0000,-11630.0000,5330.0000,23923.0000,1607234023.701800,2020-12-05 21:53:43.701800
112.000,-60692.7188,-51807.2734,-21152.7734,-11205.5996,-53239.2383,-16734.6172,-8261.3164,-17531.7012,0.0000,-9859.0635,-546.1872,0.0000,-24138.5859,-34523.2734,-20000.9668,-26810.7598,0.0080,0.9900,-0.0180,192.0000,0.0000,0.0000,0.0000,0.0000,0.0000,0.0000,-11630.0000,5330.0000,23923.0000,1607234023.708600,2020-12-05 21:53:43.708600
114.000,-60732.4805,-51805.4648,-21156.2598,-11060.6484,-53286.6445,-16560.9434,-8306.7129,-17477.4766,0.0000,-10066.8457,-639.0811,0.0000,-24318.5625,-34759.8672,-20115.4746,-26982.4219,0.0080,0.9900,-0.0180,192.0000,0.0000,0.0000,0.0000,0.0000,0.0000,0.0000,-11630.0000,5330.0000,23923.0000,1607234023.715400,2020-12-05 21:53:43.715399
116.000,-60697.1875,-51808.9961,-21151.0527,-11179.3359,-53226.0508,-16700.4414,-8255.0801,-17501.6836,0.0000,-9787.3594,-546.8130,0.0000,-24160.2676,-34450.4297,-20004.7891,-26796.2305,0.0060,0.9960,-0.0240,192.0000,0.0000,24.0000,15.5000,16.0000,127.5000,32.0000,-11630.0000,5330.0000,23923.0000,1607234023.722200,2020-12-05 21:53:43.722200
118.000,-60716.9453,-51784.4531,-21159.6133,-11074.3506,-53305.1328,-16595.4766,-8315.9219,-17479.1523,0.0000,-10105.3125,-628.8663,0.0000,-24306.8945,-34770.9297,-20112.2773,-26986.3770,0.0060,0.9960,-0.0240,192.0000,0.0000,0.0000,0.0000,0.0000,0.0000,0.0000,-11630.0000,5330.0000,23923.0000,1607234023.729000,2020-12-05 21:53:43.729000
120.000,-60697.9922,-51805.4414,-21143.0508,-11162.3711,-53226.7891,-16657.0996,-8248.8887,-17448.2852,0.0000,-9723.3887,-517.6664,0.0000,-24155.3945,-34393.5234,-20016.6348,-26793.9297,0.0060,0.9960,-0.0240,192.0000,0.0000,0.0000,0.0000,0.0000,0.0000,0.0000,-11630.0000,5330.0000,23923.0000,1607234023.735800,2020-12-05 21:53:43.735800
122.000,-60695.4688,-51762.1914,-21157.9141,-11086.7559,-53309.1992,-16632.2676,-8334.8535,-17486.0371,0.0000,-10123.5518,-614.1141,0.0000,-24290.6895,-34774.5313,-20101.3926,-26980.6777,0.0060,0.9960,-0.0240,192.0000,0.0000,0.0000,0.0000,0.0000,0.0000,0.0000,-11630.0000,5330.0000,23923.0000,1607234023.742600,2020-12-05 21:53:43.742600
124.000,-60718.1523,-51819.0742,-21136.9707,-11143.6182,-53229.2266,-16623.8633,-8256.4883,-17431.6777,0.0000,-9694.2861,-525.5342,0.0000,-24171.6230,-34371.6406,-20024.8828,-26791.8496,0.0060,0.9960,-0.0240,192.0000,0.0000,0.0000,0.0000,0.0000,0.0000,0.0000,-11630.0000,5330.0000,23923.0000,1607234023.749400,2020-12-05 21:53:43.749400
126.000,-60709.7500,-51772.5625,-21166.4980,-11120.1270,-53322.7461,-16678.6250,-8342.7217,-17516.0996,0.0000,-10161.1025,-632.7108,0.0000,-24282.3535,-34778.7539,-20084.4941,-26979.9844,0.0140,0.9940,-0.0260,192.0000,0.0000,56.0000,15.5000,8.0000,127.5000,24.0000,-11630.0000,5330.0000,23923.0000,1607234023.756200,2020-12-05 21:53:43.756200
128.000,-60735.7891,-51835.0781,-21145.3984,-11142.4561,-53224.9102,-16589.6211,-8251.7939,-17415.5625,0.0000,-9689.8164,-541.0687,0.0000,-24202.8262,-34362.0508,-20032.7285,-26811.4980,0.0140,0.9940,-0.0260,192.0000,0.0000,0.0000,0.0000,0.0000,0.0000,0.0000,-11630.0000,5330.0000,23923.0000,1607234023.763000,2020-12-05 21:53:43.763000
130.000,-60699.4922,-51770.9961,-21165.0000,-11152.2686,-53315.8164,-16714.3887,-8341.0000,-17540.4863,0.0000,-10171.4961,-628.9781,0.0000,-24265.6797,-34766.0586,-20067.4844,-26976.5645,0.0140,0.9940,-0.0260,192.0000,0.0000,0.0000,0.0000,0.0000,0.0000,0.0000,-11630.0000,5330.0000,23923.0000,1607234023.769800,2020-12-05 21:53:43.769800
132.000,-60742.0938,-51849.7188,-21136.0547,-11117.6006,-53226.1406,-16549.5000,-8247.6816,-17396.1172,0.0000,-9693.7275,-540.0405,0.0000,-24206.7363,-34364.5781,-20037.2871,-26825.4219,0.0140,0.9940,-0.0260,192.0000,0.0000,0.0000,0.0000,0.0000,0.0000,0.0000,-11630.0000,5330.0000,23923.0000,1607234023.776600,2020-12-05 21:53:43.776600
134.000,-60701.0781,-51772.9414,-21182.9707,-11177.7939,-53318.3867,-16751.0000,-8336.0830,-17562.4355,0.0000,-10164.2539,-632.9567,0.0000,-24255.4199,-34734.5664,-20050.3633,-26956.2031,0.0140,0.9940,-0.0260,192.0000,0.0000,0.0000,0.0000,0.0000,0.0000,0.0000,-11630.0000,5330.0000,23923.0000,1607234023.783400,2020-12-05 21:53:43.783400
136.000,-60756.1523,-51853.2969,-21130.0859,-11097.9980,-53217.8906,-16518.6309,-8238.4053,-17396.5410,0.0000,-9716.8613,-553.0045,0.0000,-24237.3809,-34383.0625,-20050.7207,-26845.6504,0.0140,0.9980,-0.0280,192.0000,0.0000,56.0000,15.5000,24.0000,127.5000,16.0000,-11630.0000,5330.0000,23923.0000,1607234023.790200,2020-12-05 21:53:43.790199
138.000,-60690.0586,-51765.7656,-21176.6230,-11196.0332,-53312.1719,-16770.6035,-8324.5713,-17584.8535,0.0000,-10139.3770,-604.2570,0.0000,-24214.0234,-34686.8203,-20025.4414,-26928.9570,0.0140,0.9980,-0.0280,192.0000,0.0000,0.0000,0.0000,0.0000,0.0000,0.0000,-11630.0000,5330.0000,23923.0000,1607234023.797000,2020-12-05 21:53:43.797000
140.000,-60754.6328,-51843.8398,-21139.6094,-11078.5967,-53245.8555,-16505.7129,-8256.3545,-17409.7070,0.0000,-9750.3447,-568.3825,0.0000,-24264.5605,-34412.6563,-20082.9746,-26874.3730,0.0140,0.9980,-0.0280,192.0000,0.0000,0.0000,0.0000,0.0000,0.0000,0.0000,-11630.0000,5330.0000,23923.0000,1607234023.803800,2020-12-05 21:53:43.803800
142.000,-60686.1016,-51773.9492,-21173.9180,-11200.9063,-53320.7539,-16791.6133,-8331.5674,-17603.4961,0.0000,-10102.1387,-595.8528,0.0000,-24203.9648,-34634.6523,-20024.4570,-26907.0742,0.0140,0.9980,-0.0280,192.0000,0.0000,0.0000,0.0000,0.0000,0.0000,0.0000,-11630.0000,5330.0000,23923.0000,1607234023.810600,2020-12-05 21:53:43.810600
144.000,-60759.1484,-51849.4531,-21140.6816,-11070.5508,-53256.4922,-16497.0176,-8263.9092,-17418.3555,0.0000,-9795.4951,-576.3844,0.0000,-24271.4004,-34438.7852,-20088.1816,-26894.6465,0.0140,0.9980,-0.0280,192.0000,0.0000,0.0000,0.0000,0.0000,0.0000,0.0000,-11630.0000,5330.0000,23923.0000,1607234023.817400,2020-12-05 21:53:43.817399
146.000,-60669.4727,-51763.0859,-21174.2324,-11221.0225,-53294.3789,-16809.7188,-8320.9287,-17616.5273,0.0000,-10052.8760,-593.1482,0.0000,-24195.1816,-34577.2773,-20025.3066,-26891.6055,0.0140,0.9980,-0.0280,192.0000,0.0000,56.0000,15.5000,24.0000,127.5000,16.0000,-11630.0000,5330.0000,23923.0000,1607234023.824200,2020-12-05 21:53:43.824200
148.000,-60766.7031,-51852.0664,-21139.4746,-11068.1367,-53259.1328,-16500.4590,-8281.0527,-17438.8301,0.0000,-9850.1680,-581.2571,0.0000,-24288.0762,-34483.1289,-20105.4160,-26923.7266,0.0140,0.9980,-0.0280,192.0000,0.0000,0.0000,0.0000,0.0000,0.0000,0.0000,-11630.0000,5330.0000,23923.0000,1607234023.831000,2020-12-05 21:53:43.831000
150.000,-60687.2188,-51789.3242,-21172.7559,-11242.8154,-53289.5508,-16796.4414,-8304.5225,-17604.4336,0.0000,-10000.9971,-577.9937,0.0000,-24171.8242,-34513.6641,-20018.3340,-26867.7129,0.0140,0.9980,-0.0280,192.0000,0.0000,0.0000,0.0000,0.0000,0.0000,0.0000,-11630.0000,5330.0000,23923.0000,1607234023.843750,2020-12-05 21:53:43.843750
152.000,-60747.3672,-51831.8164,-21149.9570,-11071.6455,-53277.8398,-16511.7480,-8287.4453,-17456.9570,0.0000,-9916.2168,-605.9781,0.0000,-24299.9219,-34526.5586,-20121.6660,-26947.6426,0.0140,0.9980,-0.0280,192.0000,0.0000,0.0000,0.0000,0.0000,0.0000,0.0000,-11630.0000,5330.0000,23923.0000,1607234023.856500,2020-12-05 21:53:43.856500
154.000,-60679.8672,-51788.6563,-21164.5313,-11237.7861,-53272.9219,-16784.8633,-8296.4980,-17589.4141,0.0000,-9926.5654,-558.8607,0.0000,-24152.4668,-34450.2266,-20020.0996,-26846.0078,0.0140,0.9980,-0.0280,192.0000,0.0000,0.0000,0.0000,0.0000,0.0000,0.0000,-11630.0000,5330.0000,23923.0000,1607234023.869250,2020-12-05 21:53:43.869250
156.000,-60745.1758,-51823.2539,-21168.2402,-11070.7744,-53290.6914,-16534.1211,-8298.6660,-17471.1738,0.0000,-9987.2285,-616.6622,0.0000,-24334.9238,-34576.0234,-20128.9531,-26970.6191,0.0160,0.9960,-0.0320,192.0000,0.0000,64.0000,15.5000,16.0000,127.5000,0.0000,-11630.0000,5330.0000,23923.0000,1607234023.882000,2020-12-05 21:53:43.881999
158.000,-60706.5742,-51811.0508,-21176.1758,-11220.7314,-53252.5586,-16754.3086,-8267.8203,-17566.4805,0.0000,-9874.0166,-550.6575,0.0000,-24154.3672,-34383.8867,-20010.7559,-26821.8691,0.0160,0.9960,-0.0320,192.0000,0.0000,0.0000,0.0000,0.0000,0.0000,0.0000,-11630.0000,5330.0000,23923.0000,1607234023.894750,2020-12-05 21:53:43.894750
160.000,-60741.7813,-51816.4375,-21158.6523,-11077.0771,-53302.4727,-16554.9980,-8299.0010,-17491.7598,0.0000,-10048.6738,-631.9509,0.0000,-24324.8652,-34607.5859,-20121.4863,-26982.4668,0.0160,0.9960,-0.0320,192.0000,0.0000,0.0000,0.0000,0.0000,0.0000,0.0000,-11630.0000,5330.0000,23923.0000,1607234023.907500,2020-12-05 21:53:43.907500
162.000,-60702.6875,-51815.7227,-21159.5234,-11208.4385,-53251.9336,-16717.3828,-8258.6787,-17546.0508,0.0000,-9811.2754,-544.4438,0.0000,-24158.8594,-34337.2188,-20008.2520,-26805.5527,0.0160,0.9960,-0.0320,192.0000,0.0000,0.0000,0.0000,0.0000,0.0000,0.0000,-11630.0000,5330.0000,23923.0000,1607234023.920250,2020-12-05 21:53:43.920250
164.000,-60736.9727,-51807.6328,-21178.0313,-11094.4893,-53343.1289,-16591.4531,-8311.2949,-17523.0527,0.0000,-10102.1162,-641.8080,0.0000,-24319.9707,-34647.0820,-20118.1113,-26990.7813,0.0160,0.9960,-0.0320,192.0000,0.0000,0.0000,0.0000,0.0000,0.0000,0.0000,-11630.0000,5330.0000,23923.0000,1607234023.933000,2020-12-05 21:53:43.933000
166.000,-60714.3984,-51829.8711,-21181.8750,-11203.0293,-53277.0352,-16683.0723,-8251.2578,-17528.7520,0.0000,-9763.9570,-549.7411,0.0000,-24176.4961,-34307.7344,-20018.0645,-26806.2227,0.0180,0.9940,-0.0340,192.0000,0.0000,72.0000,15.5000,8.0000,127.0000,120.0000,-11630.0000,5330.0000,23923.0000,1607234023.939730,2020-12-05 21:53:43.939733
168.000,-60706.3281,-51785.2109,-21173.9414,-11098.2441,-53343.2422,-16628.7578,-8321.5537,-17551.4824,0.0000,-10133.7441,-636.3989,0.0000,-24312.3262,-34671.5547,-20108.9473,-26995.2285,0.0180,0.9940,-0.0340,192.0000,0.0000,0.0000,0.0000,0.0000,0.0000,0.0000,-11630.0000,5330.0000,23923.0000,1607234023.946470,2020-12-05 21:53:43.946466
170.000,-60722.8047,-51836.8672,-21144.8828,-11165.9033,-53259.3555,-16644.5391,-8247.5254,-17506.3320,0.0000,-9721.2207,-534.1172,0.0000,-24181.9707,-34278.0547,-20022.3125,-26803.0488,0.0180,0.9940,-0.0340,192.0000,0.0000,0.0000,0.0000,0.0000,0.0000,0.0000,-11630.0000,5330.0000,23923.0000,1607234023.953200,2020-12-05 21:53:43.953200
172.000,-60718.1094,-51792.9258,-21166.9902,-11124.8652,-53348.3594,-16670.1992,-8331.6572,-17573.9473,0.0000,-10171.0713,-641.4056,0.0000,-24285.1914,-34685.5039,-20088.9199,-26994.8262,0.0180,0.9940,-0.0340,192.0000,0.0000,0.0000,0.0000,0.0000,0.0000,0.0000,-11630.0000,5330.0000,23923.0000,1607234023.959930,2020-12-05 21:53:43.959933
174.000,-60736.3477,-51853.3633,-21152.4824,-11157.4316,-53249.6328,-16608.5527,-8244.8428,-17484.2051,0.0000,-9704.8369,-556.7149,0.0000,-24208.0332,-34278.1641,-20032.3027,-26817.9121,0.0180,0.9940,-0.0340,192.0000,0.0000,0.0000,0.0000,0.0000,0.0000,0.0000,-11630.0000,5330.0000,23923.0000,1607234023.966670,2020-12-05 21:53:43.966666
176.000,-60695.0430,-51776.8320,-21174.8125,-11149.1172,-53359.0000,-16710.4980,-8332.8418,-17595.6270,0.0000,-10182.6494,-649.0723,0.0000,-24292.5000,-34690.5547,-20083.0859,-26985.9531,0.0100,0.9960,-0.0320,192.0000,0.0000,40.0000,15.5000,16.0000,127.5000,0.0000,-11630.0000,5330.0000,23923.0000,1607234023.973400,2020-12-05 21:53:43.973400
178.000,-60740.1250,-51857.3203,-21154.1152,-11120.8418,-53268.7891,-16572.0977,-8244.4404,-17464.1777,0.0000,-9694.7109,-540.7111,0.0000,-24199.2500,-34281.0273,-20048.4180,-26825.1328,0.0100,0.9960,-0.0320,192.0000,0.0000,0.0000,0.0000,0.0000,0.0000,0.0000,-11630.0000,5330.0000,23923.0000,1607234023.980130,2020-12-05 21:53:43.980133
180.000,-60701.5234,-51783.4688,-21209.3242,-11165.3438,-53382.6016,-16751.8047,-8334.9873,-17609.4180,0.0000,-10173.4854,-640.3774,0.0000,-24274.1270,-34663.6211,-20071.3066,-26967.5566,0.0100,0.9960,-0.0320,192.0000,0.0000,0.0000,0.0000,0.0000,0.0000,0.0000,-11630.0000,5330.0000,23923.0000,1607234023.986870,2020-12-05 21:53:43.986866
182.000,-60762.7461,-51866.2617,-21161.1328,-11107.0283,-53295.6523,-16544.9180,-8247.2793,-17440.9316,0.0000,-9709.3066,-569.2766,0.0000,-24243.5059,-34297.9219,-20075.9570,-26845.9648,0.0100,0.9960,-0.0320,192.0000,0.0000,0.0000,0.0000,0.0000,0.0000,0.0000,-11630.0000,5330.0000,23923.0000,1607234023.993600,2020-12-05 21:53:43.993599
184.000,-60693.8125,-51775.7344,-21189.0273,-11192.8369,-53372.3633,-16775.2969,-8331.2998,-17611.3633,0.0000,-10154.7998,-629.9169,0.0000,-24244.8242,-34635.4336,-20065.3613,-26945.1836,0.0100,0.9960,-0.0320,192.0000,0.0000,0.0000,0.0000,0.0000,0.0000,0.0000,-11630.0000,5330.0000,23923.0000,1607234024.000330,2020-12-05 21:53:44.000333
186.000,-60759.3477,-51857.2305,-21125.1016,-11084.6094,-53273.3008,-16513.7578,-8246.8545,-17433.3086,0.0000,-9734.9668,-568.4272,0.0000,-24259.9121,-34323.6953,-20079.1523,-26864.7617,0.0140,0.9960,-0.0320,192.0000,0.0000,56.0000,15.5000,16.0000,127.5000,0.0000,-11630.0000,5330.0000,23923.0000,1607234024.007070,2020-12-05 21:53:44.007066
188.000,-60690.0586,-51776.1836,-21172.0410,-11199.9668,-53345.1641,-16796.1504,-8321.8896,-17616.2578,0.0000,-10103.9268,-607.0286,0.0000,-24218.6055,-34583.0664,-20026.5820,-26914.9648,0.0140,0.9960,-0.0320,192.0000,0.0000,0.0000,0.0000,0.0000,0.0000,0.0000,-11630.0000,5330.0000,23923.0000,1607234024.013800,2020-12-05 21:53:44.013799
190.000,-60751.1211,-51849.8320,-21131.4512,-11055.2393,-53279.3594,-16504.5938,-8255.1914,-17422.2910,0.0000,-9781.6816,-579.4689,0.0000,-24284.7891,-34379.4414,-20082.1484,-26889.3711,0.0140,0.9960,-0.0320,192.0000,0.0000,0.0000,0.0000,0.0000,0.0000,0.0000,-11630.0000,5330.0000,23923.0000,1607234024.020530,2020-12-05 21:53:44.020533
192.000,-60678.9063,-51779.7383,-21179.3945,-11201.1738,-53344.3125,-16801.1133,-8309.1709,-17597.3496,0.0000,-10064.2969,-588.3649,0.0000,-24196.3223,-34529.1094,-20013.8398,-26890.2871,0.0140,0.9960,-0.0320,192.0000,0.0000,0.0000,0.0000,0.0000,0.0000,0.0000,-11630.0000,5330.0000,23923.0000,1607234024.027270,2020-12-05 21:53:44.027266
194.000,-60750.7188,-51846.2344,-21147.5215,-11043.9521,-53301.3750,-16503.8574,-8271.9336,-17422.7363,0.0000,-9822.6523,-588.8567,0.0000,-24304.5703,-34401.7266,-20099.9844,-26911.5449,0.0140,0.9960,-0.0320,192.0000,0.0000,0.0000,0.0000,0.0000,0.0000,0.0000,-11630.0000,5330.0000,23923.0000,1607234024.034000,2020-12-05 21:53:44.033999
196.000,-60696.0703,-51800.1641,-21193.4102,-11219.0557,-53343.7344,-16806.3438,-8309.1494,-17596.5000,0.0000,-10009.9824,-581.2794,0.0000,-24189.7266,-34472.4023,-20012.3438,-26871.7813,0.0130,0.9950,-0.0310,192.0000,0.0000,48.0000,15.5000,8.0000,127.5000,8.0000,-11630.0000,5330.0000,23923.0000,1607234024.040800,2020-12-05 21:53:44.040799
198.000,-60757.0234,-51842.1641,-21171.5938,-11058.2793,-53326.2969,-16509.8926,-8285.7686,-17449.3359,0.0000,-9895.5859,-613.0189,0.0000,-24320.3965,-34461.0898,-20105.1250,-26944.1543,0.0130,0.9950,-0.0310,192.0000,0.0000,0.0000,0.0000,0.0000,0.0000,0.0000,-11630.0000,5330.0000,23923.0000,1607234024.047600,2020-12-05 21:53:44.047600
200.000,-60684.7813,-51794.0195,-21159.3906,-11220.6650,-53310.0938,-16784.9297,-8284.4053,-17583.6914,0.0000,-9945.4531,-566.9073,0.0000,-24177.6348,-34415.2695,-19995.8027,-26851.3281,0.0130,0.9950,-0.0310,192.0000,0.0000,0.0000,0.0000,0.0000,0.0000,0.0000,-11630.0000,5330.0000,23923.0000,1607234024.054400,2020-12-05 21:53:44.054399
202.000,-60755.7734,-51839.0586,-21146.6270,-11063.6885,-53314.3867,-16523.1680,-8284.3828,-17457.8965,0.0000,-9945.0957,-606.4922,0.0000,-24317.9141,-34504.6992,-20095.7598,-26954.0566,0.0130,0.9950,-0.0310,192.0000,0.0000,0.0000,0.0000,0.0000,0.0000,0.0000,-11630.0000,5330.0000,23923.0000,1607234024.061200,2020-12-05 21:53:44.061199
204.000,-60706.0625,-51821.3125,-21183.1719,-11235.1260,-53291.6289,-16773.6875,-8279.8906,-17582.3281,0.0000,-9885.5947,-558.4360,0.0000,-24157.3184,-34368.5781,-19986.4590,-26828.4395,0.0130,0.9950,-0.0310,192.0000,0.0000,0.0000,0.0000,0.0000,0.0000,0.0000,-11630.0000,5330.0000,23923.0000,1607234024.068000,2020-12-05 21:53:44.067999
206.000,-60744.1250,-51821.3125,-21158.3613,-11069.1865,-53327.3047,-16560.7207,-8308.4336,-17493.5254,0.0000,-10021.6729,-634.0966,0.0000,-24349.8105,-34574.5938,-20110.6016,-26983.7188,0.0125,0.9945,-0.0285,192.0000,0.0000,48.0000,15.5000,8.0000,127.5000,24.0000,-11630.0000,5330.0000,23923.0000,1607234024.074800,2020-12-05 21:53:44.074800
208.000,-60705.3008,-51817.2422,-21160.8652,-11209.4668,-53286.3125,-16741.7461,-8272.4248,-17552.2422,0.0000,-9818.6514,-546.1202,0.0000,-24148.4883,-34318.5977,-19986.2363,-26813.2402,0.0125,0.9945,-0.0285,192.0000,0.0000,0.0000,0.0000,0.0000,0.0000,0.0000,-11630.0000,5330.0000,23923.0000,1607234024.081600,2020-12-05 21:53:44.081599
210.000,-60737.4648,-51816.5508,-21169.5371,-11071.2881,-53342.9961,-16587.5195,-8317.3965,-17505.1250,0.0000,-10074.9814,-638.2317,0.0000,-24330.3418,-34606.2656,-20106.8906,-26992.2793,0.0125,0.9945,-0.0285,192.0000,0.0000,0.0000,0.0000,0.0000,0.0000,0.0000,-11630.0000,5330.0000,23923.0000,1607234024.088400,2020-12-05 21:53:44.088399
212.000,-60715.4961,-51832.1055,-21164.7988,-11180.5654,-53258.1016,-16695.5000,-8252.4424,-17511.1836,0.0000,-9763.8672,-538.4088,0.0000,-24162.2129,-34284.4883,-20003.6250,-26797.2363,0.0125,0.9945,-0.0285,192.0000,0.0000,0.0000,0.0000,0.0000,0.0000,0.0000,-11630.0000,5330.0000,23923.0000,1607234024.095200,2020-12-05 21:53:44.095199
214.000,-60734.2266,-51806.1328,-21177.6738,-11085.3477,-53337.0039,-16616.1523,-8321.6211,-17522.3809,0.0000,-10112.9121,-640.9586,0.0000,-24324.3965,-34636.6875,-20107.8066,-26985.3711,0.0125,0.9945,-0.0285,192.0000,0.0000,0.0000,0.0000,0.0000,0.0000,0.0000,-11630.0000,5330.0000,23923.0000,1607234024.102000,2020-12-05 21:53:44.101999
216.000,-60731.4766,-51850.9492,-21158.1387,-11168.0713,-53261.3906,-16657.4141,-8256.3096,-17500.9453,0.0000,-9728.9766,-548.9365,0.0000,-24190.5313,-34258.9883,-20011.2031,-26796.9238,0.0123,0.9933,-0.0273,192.0000,0.0000,48.0000,15.5000,0.0000,127.5000,24.0000,-11630.0000,5330.0000,23923.0000,1607234024.108800,2020-12-05 21:53:44.108799
218.000,-60725.5742,-51799.4961,-21186.2559,-11113.0186,-53358.0391,-16666.1973,-8340.3301,-17562.5918,0.0000,-10162.2646,-655.0849,0.0000,-24320.4844,-34664.1797,-20100.4082,-26992.9707,0.0123,0.9933,-0.0273,192.0000,0.0000,0.0000,0.0000,0.0000,0.0000,0.0000,-11630.0000,5330.0000,23923.0000,1607234024.115600,2020-12-05 21:53:44.115599
220.000,-60739.8359,-51856.4492,-21161.0664,-11150.3457,-53262.9766,-16620.4219,-8246.5420,-17472.9609,0.0000,-9701.2598,-554.2115,0.0000,-24209.0625,-34253.2422,-20027.6309,-26808.5254,0.0123,0.9933,-0.0273,192.0000,0.0000,0.0000,0.0000,0.0000,0.0000,0.0000,-11630.0000,5330.0000,23923.0000,1607234024.122400,2020-12-05 21:53:44.122399
222.000,-60714.8008,-51793.6172,-21193.9453,-11131.0117,-53357.3008,-16699.1895,-8342.1396,-17577.1426,0.0000,-10168.1436,-644.6467,0.0000,-24296.8379,-34665.5195,-20075.4863,-26980.7891,0.0123,0.9933,-0.0273,192.0000,0.0000,0.0000,0.0000,0.0000,0.0000,0.0000,-11630.0000,5330.0000,23923.0000,1607234024.129200,2020-12-05 21:53:44.129199
224.000,-60744.6836,-51864.3828,-21152.7285,-11119.5674,-53257.2305,-16579.3379,-8247.1230,-17448.1289,0.0000,-9692.7217,-549.2941,0.0000,-24214.4043,-34255.0547,-20038.4277,-26819.7461,0.0123,0.9933,-0.0273,192.0000,0.0000,0.0000,0.0000,0.0000,0.0000,0.0000,-11630.0000,5330.0000,23923.0000,1607234024.136000,2020-12-05 21:53:44.135999
226.000,-60703.9141,-51796.4102,-21184.1113,-11152.6934,-53347.2188,-16741.0977,-8339.4131,-17590.5098,0.0000,-10179.2080,-636.5776,0.0000,-24267.9590,-34648.5117,-20063.6855,-26971.8496,0.0131,0.9926,-0.0256,192.0000,0.0000,56.0000,15.5000,0.0000,127.5000,32.0000,-11630.0000,5330.0000,23923.0000,1607234024.150570,2020-12-05 21:53:44.150571
228.000,-60772.4922,-51885.3711,-21164.8438,-11117.7568,-53264.4961,-16560.6523,-8258.5889,-17445.8047,0.0000,-9710.4023,-559.4865,0.0000,-24247.4844,-34280.0195,-20058.6328,-26845.8750,0.0131,0.9926,-0.0256,192.0000,0.0000,0.0000,0.0000,0.0000,0.0000,0.0000,-11630.0000,5330.0000,23923.0000,1607234024.165140,2020-12-05 21:53:44.165142
230.000,-60715.7383,-51803.8086,-21208.4082,-11186.6006,-53367.0664,-16778.5820,-8347.4824,-17616.5488,0.0000,-10181.7334,-639.6846,0.0000,-24280.6777,-34645.7617,-20060.8906,-26969.3906,0.0131,0.9926,-0.0256,192.0000,0.0000,0.0000,0.0000,0.0000,0.0000,0.0000,-11630.0000,5330.0000,23923.0000,1607234024.179710,2020-12-05 21:53:44.179714
232.000,-60764.3320,-51872.8984,-21136.3457,-11086.4873,-53276.2969,-16527.1484,-8261.9863,-17433.8906,0.0000,-9738.4531,-571.2211,0.0000,-24259.0859,-34314.1055,-20068.4902,-26871.9141,0.0131,0.9926,-0.0256,192.0000,0.0000,0.0000,0.0000,0.0000,0.0000,0.0000,-11630.0000,5330.0000,23923.0000,1607234024.194290,2020-12-05 21:53:44.194285
234.000,-60689.3203,-51785.1016,-21168.3301,-11180.9678,-53352.7617,-16791.3223,-8340.4414,-17622.4941,0.0000,-10129.6982,-615.5894,0.0000,-24223.5898,-34591.1328,-20018.3555,-26938.7910,0.0131,0.9926,-0.0256,192.0000,0.0000,0.0000,0.0000,0.0000,0.0000,0.0000,-11630.0000,5330.0000,23923.0000,1607234024.208860,2020-12-05 21:53:44.208857
236.000,-60767.4414,-51871.0430,-21141.7773,-11052.5352,-53288.9492,-16505.1758,-8268.4912,-17434.6953,0.0000,-9771.0645,-575.0657,0.0000,-24278.7539,-34341.3086,-20056.2422,-26887.3594,0.0166,0.9913,-0.0248,192.0000,0.0000,80.0000,15.0000,120.0000,127.5000,32.0000,-11630.0000,5330.0000,23923.0000,1607234024.223430,2020-12-05 21:53:44.223428
238.000,-60692.2500,-51796.0547,-21180.7578,-11190.5791,-53343.7539,-16806.9238,-8330.4727,-17624.7969,0.0000,-10089.8457,-596.8139,0.0000,-24201.4395,-34549.9180,-19997.1211,-26912.1699,0.0166,0.9913,-0.0248,192.0000,0.0000,0.0000,0.0000,0.0000,0.0000,0.0000,-11630.0000,5330.0000,23923.0000,1607234024.238000,2020-12-05 21:53:44.237999
240.000,-60776.8945,-51876.5430,-21155.3223,-11051.4395,-53292.0547,-16510.6523,-8283.2207,-17448.4648,0.0000,-9828.1953,-596.0540,0.0000,-24305.5762,-34401.0547,-20068.4688,-26921.1113,0.0166,0.9913,-0.0248,192.0000,0.0000,0.0000,0.0000,0.0000,0.0000,0.0000,-11630.0000,5330.0000,23923.0000,1607234024.244800,2020-12-05 21:53:44.244799
242.000,-60705.5469,-51810.5156,-21196.0020,-11201.4873,-53335.5742,-16817.2734,-8332.5293,-17627.6348,0.0000,-10039.9336,-601.5078,0.0000,-24206.6035,-34507.4727,-20000.1387,-26896.7910,0.0166,0.9913,-0.0248,192.0000,0.0000,0.0000,0.0000,0.0000,0.0000,0.0000,-11630.0000,5330.0000,23923.0000,1607234024.251600,2020-12-05 21:53:44.251600
244.000,-60758.3867,-51853.5195,-21157.9141,-11028.7080,-53299.0977,-16508.1699,-8296.1406,-17460.5117,0.0000,-9877.9287,-613.3542,0.0000,-24327.4375,-34448.8867,-20088.5625,-26945.3848,0.0166,0.9913,-0.0248,192.0000,0.0000,0.0000,0.0000,0.0000,0.0000,0.0000,-11630.0000,5330.0000,23923.0000,1607234024.258400,2020-12-05 21:53:44.258399
246.000,-60695.8906,-51807.8789,-21158.0039,-11205.0186,-53310.8516,-16798.7441,-8318.2686,-17618.2246,0.0000,-9968.6543,-569.6566,0.0000,-24185.2793,-34436.8633,-19979.0605,-26861.5664,0.0153,0.9917,-0.0244,192.0000,0.0000,56.0000,15.5000,0.0000,127.5000,32.0000,-11630.0000,5330.0000,23923.0000,1607234024.265200,2020-12-05 21:53:44.265199
248.000,-60759.5273,-51849.0508,-21137.8438,-11048.8018,-53318.0508,-16526.0527,-8311.5850,-17476.1133,0.0000,-9942.0107,-613.8906,0.0000,-24322.5859,-34492.8086,-20080.4043,-26960.6289,0.0153,0.9917,-0.0244,192.0000,0.0000,0.0000,0.0000,0.0000,0.0000,0.0000,-11630.0000,5330.0000,23923.0000,1607234024.272000,2020-12-05 21:53:44.271999
250.000,-60697.5234,-51819.1211,-21167.7715,-11218.6084,-53300.3047,-16785.8242,-8304.0303,-17600.9707,0.0000,-9915.9268,-568.6060,0.0000,-24175.9355,-34390.1680,-19973.4297,-26845.5176,0.0153,0.9917,-0.0244,192.0000,0.0000,0.0000,0.0000,0.0000,0.0000,0.0000,-11630.0000,5330.0000,23923.0000,1607234024.278800,2020-12-05 21:53:44.278800
252.000,-60755.5703,-51839.3477,-21154.8301,-11065.6777,-53323.7734,-16548.0684,-8316.8604,-17499.5371,0.0000,-9999.5439,-630.7886,0.0000,-24334.1191,-34546.1836,-20085.9707,-26982.3535,0.0153,0.9917,-0.0244,192.0000,0.0000,0.0000,0.0000,0.0000,0.0000,0.0000,-11630.0000,5330.0000,23923.0000,1607234024.285600,2020-12-05 21:53:44.285599
254.000,-60705.0352,-51821.5117,-21166.7441,-11203.6104,-53278.6016,-16753.1680,-8279.5107,-17580.8535,0.0000,-9830.6992,-555.6420,0.0000,-24183.4473,-34332.7031,-19969.9414,-26824.2598,0.0153,0.9917,-0.0244,192.0000,0.0000,0.0000,0.0000,0.0000,0.0000,0.0000,-11630.0000,5330.0000,23923.0000,1607234024.292400,2020-12-05 21:53:44.292399
0.000,-60746.5195,-51825.3125,-21155.2539,-11065.9238,-53326.1211,-16579.4961,-8319.9893,-17533.5117,0.0000,-10052.7861,-632.9790,0.0000,-24341.4727,-34583.5781,-20083.5566,-26993.4414,0.0136,0.9928,-0.0262,192.0000,0.0000,48.0000,15.5000,8.0000,127.5000,16.0000,-11630.0000,5330.0000,23923.0000,1607234024.299200,2020-12-05 21:53:44.299199
2.000,-60726.2891,-51844.3984,-21164.6426,-11191.9424,-53280.5664,-16722.1211,-8286.9980,-17583.7363,0.0000,-9779.0000,-552.6469,0.0000,-24174.8184,-34291.7305,-19985.1855,-26818.9414,0.0136,0.9928,-0.0262,192.0000,0.0000,0.0000,0.0000,0.0000,0.0000,0.0000,-11630.0000,5330.0000,23923.0000,1607234024.306000,2020-12-05 21:53:44.305999
4.000,-60750.8984,-51830.9453,-21175.3945,-11085.9951,-53358.6875,-16617.5820,-8342.2520,-17576.5176,0.0000,-10113.3369,-653.3191,0.0000,-24345.9434,-34625.4883,-20090.4395,-27009.6465,0.0136,0.9928,-0.0262,192.0000,0.0000,0.0000,0.0000,0.0000,0.0000,0.0000,-11630.0000,5330.0000,23923.0000,1607234024.312800,2020-12-05 21:53:44.312799
6.000,-60737.5781,-51862.6172,-21162.4746,-11179.1572,-53281.8633,-16679.8320,-8271.9111,-17549.5840,0.0000,-9753.6084,-560.7606,0.0000,-24197.5273,-34266.4063,-19994.7969,-26818.0684,0.0136,0.9928,-0.0262,192.0000,0.0000,0.0000,0.0000,0.0000,0.0000,0.0000,-11630.0000,5330.0000,23923.0000,1607234024.319600,2020-12-05 21:53:44.319599
8.000,-60734.4258,-51806.4922,-21174.0977,-11096.5898,-53354.4609,-16652.2500,-8346.1855,-17590.4648,0.0000,-10146.9541,-653.0286,0.0000,-24321.6914,-34643.8398,-20074.6152,-27006.9863,0.0136,0.9928,-0.0262,192.0000,0.0000,0.0000,0.0000,0.0000,0.0000,0.0000,-11630.0000,5330.0000,23923.0000,1607234024.326400,2020-12-05 21:53:44.326399
10.000,-60757.4023,-51872.1836,-21152.5957,-11151.2852,-53261.4766,-16637.1621,-8257.6279,-17519.2520,0.0000,-9707.4521,-559.1065,0.0000,-24201.3066,-34239.6992,-19998.9551,-26816.6836,0.0148,0.9914,-0.0271,192.0000,0.0000,64.0000,15.0000,120.0000,127.5000,16.0000,-11630.0000,5330.0000,23923.0000,1607234024.333200,2020-12-05 21:53:44.333199
