%OpenBCI Raw EEG Data
%Number of channels = 8
%Sample Rate = 250 Hz
%Board = OpenBCI_GUI$BoardCytonSerial
%Logger = brainHat
Sample Index, EXG Channel 0, EXG Channel 1, EXG Channel 2, EXG Channel 3, EXG Channel 4, EXG Channel 5, EXG Channel 6, EXG Channel 7, Accel Channel 0, Accel Channel 1, Accel Channel 2, Accel Channel 3, Accel Channel 4, Accel Channel 5, Accel Channel 6, Accel Channel 7, Other, Other, Other, Other, Other, Other, Other, Analog Channel 0, Analog Channel 1, Analog Channel 2, Timestamp, Timestamp (Formatted)
81.000,-7434.4360,-7891.2158,-7960.9761,-8041.9116,-154198.7813,-154063.8906,-142751.7969,-144585.7813,-0.9300,-0.3500,-0.0060,192.0000,0.0000,0.0000,0.0000,0.0000,0.0000,0.0000,0.0000,0.0000,0.0000,1612661114.911630,2021-02-06 17:25:14.911628
82.000,-7409.5806,-7792.6670,-8267.4629,-8426.9873,-154199.1875,-154064.7969,-143022.4375,-144825.8906,-0.9300,-0.3500,-0.0060,192.0000,0.0000,0.0000,0.0000,0.0000,0.0000,0.0000,0.0000,0.0000,0.0000,1612661114.915930,2021-02-06 17:25:14.915933
83.000,-7453.5020,-7850.5137,-8414.5596,-8656.3164,-154198.6719,-154064.0000,-143107.0156,-144881.1875,-0.9300,-0.3500,-0.0060,192.0000,0.0000,0.0000,0.0000,0.0000,0.0000,0.0000,0.0000,0.0000,0.0000,1612661114.920240,2021-02-06 17:25:14.920238
84.000,-7486.1133,-7953.6670,-8126.0884,-8293.9717,-154199.3125,-154064.1563,-142851.2188,-144655.4844,-0.9300,-0.3500,-0.0060,192.0000,0.0000,0.0000,0.0000,0.0000,0.0000,0.0000,0.0000,0.0000,0.0000,1612661114.924540,2021-02-06 17:25:14.924544
85.000,-7445.2764,-7913.3218,-7942.2451,-8024.5444,-154199.0000,-154063.9688,-142729.0938,-144562.8750,-0.9300,-0.3500,-0.0060,192.0000,0.0000,0.0000,0.0000,0.0000,0.0000,0.0000,0.0000,0.0000,0.0000,1612661114.928850,2021-02-06 17:25:14.928849
86.000,-7412.9336,-7804.9829,-8208.8340,-8347.0576,-154203.2656,-154068.7188,-142976.8125,-144788.3750,-0.9300,-0.3500,-0.0060,192.0000,0.0000,0.0000,0.0000,0.0000,0.0000,0.0000,0.0000,0.0000,0.0000,1612661114.933160,2021-02-06 17:25:14.933155
87.000,-7448.3608,-7835.2251,-8429.9375,-8667.7822,-154203.4219,-154068.8750,-143128.4688,-144903.6563,-0.9300,-0.3500,-0.0060,192.0000,0.0000,0.0000,0.0000,0.0000,0.0000,0.0000,0.0000,0.0000,0.0000,1612661114.937460,2021-02-06 17:25:14.937460
88.000,-7490.1138,-7946.6035,-8193.7695,-8382.2617,-154202.3594,-154067.3281,-142906.1250,-144702.6563,-0.9300,-0.3440,-0.0120,192.0000,226.0000,240.0000,245.0000,64.0000,255.0000,160.0000,0.0000,0.0000,0.0000,1612661114.941770,2021-02-06 17:25:14.941766
89.000,-7458.9331,-7935.1821,-7943.6533,-8032.6802,-154202.0156,-154066.9531,-142723.5469,-144555.4688,-0.9300,-0.3440,-0.0120,192.0000,0.0000,0.0000,0.0000,0.0000,0.0000,0.0000,0.0000,0.0000,0.0000,1612661114.946070,2021-02-06 17:25:14.946071
90.000,-7415.3027,-7819.3550,-8145.0200,-8263.8418,-154203.7656,-154069.1406,-142923.6250,-144742.6875,-0.9300,-0.3440,-0.0120,192.0000,0.0000,0.0000,0.0000,0.0000,0.0000,0.0000,0.0000,0.0000,0.0000,1612661114.950380,2021-02-06 17:25:14.950377
91.000,-7436.8496,-7816.4492,-8420.6846,-8648.8730,-154201.8125,-154067.2344,-143128.6719,-144907.0313,-0.9300,-0.3440,-0.0120,192.0000,0.0000,0.0000,0.0000,0.0000,0.0000,0.0000,0.0000,0.0000,0.0000,1612661114.954680,2021-02-06 17:25:14.954683
92.000,-7487.4541,-7931.4492,-8257.5391,-8464.9629,-154202.2031,-154067.2344,-142959.3594,-144748.5313,-0.9300,-0.3440,-0.0120,192.0000,0.0000,0.0000,0.0000,0.0000,0.0000,0.0000,0.0000,0.0000,0.0000,1612661114.958990,2021-02-06 17:25:14.958988
93.000,-7470.3105,-7951.2080,-7960.6182,-8061.1787,-154203.6094,-154068.5313,-142731.4688,-144559.7500,-0.9300,-0.3440,-0.0120,192.0000,0.0000,0.0000,0.0000,0.0000,0.0000,0.0000,0.0000,0.0000,0.0000,1612661114.963290,2021-02-06 17:25:14.963294
94.000,-7422.1870,-7840.2539,-8085.8550,-8188.3823,-154205.9063,-154071.2656,-142872.2344,-144697.8594,-0.9300,-0.3440,-0.0120,192.0000,0.0000,0.0000,0.0000,0.0000,0.0000,0.0000,0.0000,0.0000,0.0000,1612661114.967600,2021-02-06 17:25:14.967599
95.000,-7432.8042,-7808.3135,-8401.3496,-8614.4287,-154206.4375,-154071.8438,-143120.8281,-144904.6563,-0.9300,-0.3440,-0.0120,192.0000,0.0000,0.0000,0.0000,0.0000,0.0000,0.0000,0.0000,0.0000,0.0000,1612661114.971900,2021-02-06 17:25:14.971904
96.000,-7483.9004,-7914.3501,-8318.2686,-8541.4287,-154203.7656,-154068.7344,-143012.4219,-144795.3125,-0.9300,-0.3440,-0.0120,192.0000,0.0000,0.0000,0.0000,0.0000,0.0000,0.0000,0.0000,0.0000,0.0000,1612661114.976580,2021-02-06 17:25:14.976575
97.000,-7478.3125,-7960.1714,-7990.9497,-8107.0220,-154202.7969,-154067.5938,-142750.8906,-144574.0313,-0.9300,-0.3440,-0.0120,192.0000,0.0000,0.0000,0.0000,0.0000,0.0000,0.0000,0.0000,0.0000,0.0000,1612661114.981250,2021-02-06 17:25:14.981246
98.000,-7427.2163,-7860.2588,-8029.3945,-8119.9189,-154203.9844,-154069.2031,-142820.7969,-144650.9844,-0.9320,-0.3460,-0.0120,192.0000,226.0000,224.0000,245.0000,48.0000,255.0000,160.0000,0.0000,0.0000,0.0000,1612661114.985920,2021-02-06 17:25:14.985917
99.000,-7423.9307,-7799.0596,-8360.1777,-8554.7725,-154204.3906,-154069.7813,-143093.3438,-144883.9375,-0.9320,-0.3460,-0.0120,192.0000,0.0000,0.0000,0.0000,0.0000,0.0000,0.0000,0.0000,0.0000,0.0000,1612661114.990590,2021-02-06 17:25:14.990588
100.000,-7477.5298,-7894.3228,-8368.6045,-8603.6553,-154204.6719,-154069.7031,-143059.2500,-144837.4219,-0.9320,-0.3460,-0.0120,192.0000,0.0000,0.0000,0.0000,0.0000,0.0000,0.0000,0.0000,0.0000,0.0000,1612661114.995260,2021-02-06 17:25:14.995258
101.000,-7485.0625,-7964.0605,-8035.1167,-8169.9424,-154202.3125,-154067.0781,-142782.6875,-144599.4844,-0.9320,-0.3460,-0.0120,192.0000,0.0000,0.0000,0.0000,0.0000,0.0000,0.0000,0.0000,0.0000,0.0000,1612661114.999930,2021-02-06 17:25:14.999929
102.000,-7434.2793,-7881.9849,-7984.0649,-8067.3926,-154202.0469,-154067.1250,-142776.9531,-144610.1094,-0.9320,-0.3460,-0.0120,192.0000,0.0000,0.0000,0.0000,0.0000,0.0000,0.0000,0.0000,0.0000,0.0000,1612661115.004600,2021-02-06 17:25:15.004600
103.000,-7417.8506,-7796.3105,-8307.6514,-8481.1904,-154202.9844,-154068.5313,-143054.9844,-144853.5000,-0.9320,-0.3460,-0.0120,192.0000,0.0000,0.0000,0.0000,0.0000,0.0000,0.0000,0.0000,0.0000,0.0000,1612661115.009270,2021-02-06 17:25:15.009271
104.000,-7465.3037,-7869.0879,-8402.3330,-8643.6201,-154201.4219,-154066.7500,-143093.3750,-144868.6094,-0.9320,-0.3460,-0.0120,192.0000,0.0000,0.0000,0.0000,0.0000,0.0000,0.0000,0.0000,0.0000,0.0000,1612661115.013940,2021-02-06 17:25:15.013942
105.000,-7487.4541,-7960.0371,-8088.1128,-8243.4570,-154199.7344,-154064.5938,-142822.3594,-144631.8125,-0.9320,-0.3460,-0.0120,192.0000,0.0000,0.0000,0.0000,0.0000,0.0000,0.0000,0.0000,0.0000,0.0000,1612661115.018610,2021-02-06 17:25:15.018612
106.000,-7441.8564,-7902.4590,-7952.7280,-8034.1333,-154199.5781,-154064.5625,-142743.2344,-144577.6250,-0.9320,-0.3460,-0.0120,192.0000,0.0000,0.0000,0.0000,0.0000,0.0000,0.0000,0.0000,0.0000,0.0000,1612661115.023280,2021-02-06 17:25:15.023283
107.000,-7413.3359,-7798.7246,-8246.1846,-8398.1533,-154200.7031,-154066.1250,-143006.8750,-144813.6875,-0.9320,-0.3460,-0.0120,192.0000,0.0000,0.0000,0.0000,0.0000,0.0000,0.0000,0.0000,0.0000,0.0000,1612661115.027950,2021-02-06 17:25:15.027954
108.000,-7454.6416,-7847.0269,-8422.9414,-8664.4297,-154200.7969,-154065.9844,-143117.6719,-144892.3594,-0.9320,-0.3440,-0.0100,192.0000,226.0000,224.0000,245.0000,64.0000,255.0000,176.0000,0.0000,0.0000,0.0000,1612661115.032630,2021-02-06 17:25:15.032625
109.000,-7489.9126,-7953.1528,-8150.8540,-8326.8516,-154199.6719,-154064.5156,-142871.4531,-144673.1406,-0.9320,-0.3440,-0.0100,192.0000,0.0000,0.0000,0.0000,0.0000,0.0000,0.0000,0.0000,0.0000,0.0000,1612661115.036160,2021-02-06 17:25:15.036162
110.000,-7453.3232,-7924.3413,-7941.4180,-8025.9971,-154200.2344,-154065.2344,-142726.2969,-144559.9844,-0.9320,-0.3440,-0.0100,192.0000,0.0000,0.0000,0.0000,0.0000,0.0000,0.0000,0.0000,0.0000,0.0000,1612661115.039700,2021-02-06 17:25:15.039700
111.000,-7412.5981,-7808.1792,-8181.8335,-8312.8818,-154199.5625,-154065.0781,-142954.2656,-144769.0938,-0.9320,-0.3440,-0.0100,192.0000,0.0000,0.0000,0.0000,0.0000,0.0000,0.0000,0.0000,0.0000,0.0000,1612661115.043240,2021-02-06 17:25:15.043237
112.000,-7442.5493,-7825.8149,-8425.0879,-8660.1162,-154198.4844,-154063.9531,-143126.7969,-144903.2656,-0.9320,-0.3440,-0.0100,192.0000,0.0000,0.0000,0.0000,0.0000,0.0000,0.0000,0.0000,0.0000,0.0000,1612661115.046780,2021-02-06 17:25:15.046775
113.000,-7486.7388,-7938.3560,-8213.4160,-8409.1953,-154196.8281,-154061.8281,-142921.3594,-144715.5000,-0.9320,-0.3440,-0.0100,192.0000,0.0000,0.0000,0.0000,0.0000,0.0000,0.0000,0.0000,0.0000,0.0000,1612661115.050310,2021-02-06 17:25:15.050313
114.000,-7461.1016,-7939.2275,-7944.0332,-8036.8379,-154197.7656,-154062.6406,-142720.6406,-144551.7188,-0.9320,-0.3440,-0.0100,192.0000,0.0000,0.0000,0.0000,0.0000,0.0000,0.0000,0.0000,0.0000,0.0000,1612661115.053850,2021-02-06 17:25:15.053850
115.000,-7415.1465,-7823.8701,-8118.2427,-8230.4932,-154199.4531,-154064.7500,-142899.7500,-144721.6563,-0.9320,-0.3440,-0.0100,192.0000,0.0000,0.0000,0.0000,0.0000,0.0000,0.0000,0.0000,0.0000,0.0000,1612661115.057390,2021-02-06 17:25:15.057388
116.000,-7434.6592,-7811.7554,-8413.3301,-8636.3115,-154200.3438,-154065.7344,-143124.8906,-144905.4375,-0.9320,-0.3440,-0.0100,192.0000,0.0000,0.0000,0.0000,0.0000,0.0000,0.0000,0.0000,0.0000,0.0000,1612661115.060930,2021-02-06 17:25:15.060925
117.000,-7484.7944,-7923.2236,-8277.9902,-8491.4502,-154198.4063,-154063.4844,-142976.0156,-144762.9844,-0.9320,-0.3500,-0.0120,192.0000,226.0000,224.0000,245.0000,16.0000,255.0000,160.0000,0.0000,0.0000,0.0000,1612661115.064460,2021-02-06 17:25:15.064463
118.000,-7470.6011,-7951.9009,-7966.0273,-8071.7065,-154197.7969,-154062.7500,-142732.3750,-144559.0938,-0.9320,-0.3500,-0.0120,192.0000,0.0000,0.0000,0.0000,0.0000,0.0000,0.0000,0.0000,0.0000,0.0000,1612661115.068000,2021-02-06 17:25:15.068001
119.000,-7420.4658,-7843.5620,-8059.2788,-8156.5313,-154199.2188,-154064.4688,-142847.3125,-144674.9531,-0.9320,-0.3500,-0.0120,192.0000,0.0000,0.0000,0.0000,0.0000,0.0000,0.0000,0.0000,0.0000,0.0000,1612661115.071540,2021-02-06 17:25:15.071538
120.000,-7425.5845,-7799.9985,-8382.9541,-8589.2158,-154199.2969,-154064.7969,-143106.6094,-144892.9844,-0.9320,-0.3500,-0.0120,192.0000,0.0000,0.0000,0.0000,0.0000,0.0000,0.0000,0.0000,0.0000,0.0000,1612661115.075080,2021-02-06 17:25:15.075076
121.000,-7478.6924,-7903.4424,-8334.4512,-8562.3271,-154198.4219,-154063.5313,-143025.9844,-144807.0938,-0.9320,-0.3500,-0.0120,192.0000,0.0000,0.0000,0.0000,0.0000,0.0000,0.0000,0.0000,0.0000,0.0000,1612661115.078610,2021-02-06 17:25:15.078613
122.000,-7478.2007,-7958.8301,-8002.2817,-8124.8813,-154197.2969,-154062.0938,-142756.9375,-144577.9375,-0.9320,-0.3500,-0.0120,192.0000,0.0000,0.0000,0.0000,0.0000,0.0000,0.0000,0.0000,0.0000,0.0000,1612661115.082150,2021-02-06 17:25:15.082151
123.000,-7425.4502,-7863.5894,-8006.1489,-8093.2090,-154196.5938,-154061.7344,-142797.4844,-144629.3281,-0.9320,-0.3500,-0.0120,192.0000,0.0000,0.0000,0.0000,0.0000,0.0000,0.0000,0.0000,0.0000,0.0000,1612661115.085690,2021-02-06 17:25:15.085689
124.000,-7417.9404,-7793.3154,-8337.9385,-8524.5527,-154197.9219,-154063.3906,-143075.1719,-144868.8906,-0.9320,-0.3500,-0.0120,192.0000,0.0000,0.0000,0.0000,0.0000,0.0000,0.0000,0.0000,0.0000,0.0000,1612661115.090060,2021-02-06 17:25:15.090060
125.000,-7471.0928,-7882.4316,-8380.4063,-8618.1621,-154198.8906,-154064.0156,-143069.5781,-144846.5469,-0.9320,-0.3500,-0.0120,192.0000,0.0000,0.0000,0.0000,0.0000,0.0000,0.0000,0.0000,0.0000,0.0000,1612661115.094430,2021-02-06 17:25:15.094431
126.000,-7486.6943,-7963.1665,-8053.7578,-8195.7588,-154199.2969,-154064.1250,-142795.3281,-144609.5625,-0.9320,-0.3500,-0.0120,192.0000,0.0000,0.0000,0.0000,0.0000,0.0000,0.0000,0.0000,0.0000,0.0000,1612661115.098800,2021-02-06 17:25:15.098802
127.000,-7437.7437,-7889.8975,-7970.6987,-8052.2158,-154199.3594,-154064.4063,-142761.9219,-144596.1406,-0.9320,-0.3500,-0.0160,192.0000,226.0000,224.0000,245.0000,16.0000,255.0000,128.0000,0.0000,0.0000,0.0000,1612661115.103170,2021-02-06 17:25:15.103173
128.000,-7416.3979,-7796.4893,-8285.2998,-8450.4570,-154200.1875,-154065.6719,-143036.8281,-144838.7813,-0.9320,-0.3500,-0.0160,192.0000,0.0000,0.0000,0.0000,0.0000,0.0000,0.0000,0.0000,0.0000,0.0000,1612661115.107550,2021-02-06 17:25:15.107545
129.000,-7461.0791,-7859.7896,-8410.6709,-8652.5615,-154198.4063,-154063.5938,-143102.0938,-144876.9375,-0.9320,-0.3500,-0.0160,192.0000,0.0000,0.0000,0.0000,0.0000,0.0000,0.0000,0.0000,0.0000,0.0000,1612661115.111920,2021-02-06 17:25:15.111916
130.000,-7485.8672,-7954.8291,-8107.2681,-8270.0781,-154194.5469,-154059.3750,-142835.7344,-144642.3750,-0.9320,-0.3500,-0.0160,192.0000,0.0000,0.0000,0.0000,0.0000,0.0000,0.0000,0.0000,0.0000,0.0000,1612661115.116290,2021-02-06 17:25:15.116287
131.000,-7446.4609,-7910.8857,-7945.7769,-8027.5396,-154197.8906,-154062.8281,-142734.1250,-144568.6406,-0.9320,-0.3500,-0.0160,192.0000,0.0000,0.0000,0.0000,0.0000,0.0000,0.0000,0.0000,0.0000,0.0000,1612661115.120660,2021-02-06 17:25:15.120658
132.000,-7414.8110,-7803.3960,-8223.3857,-8367.2412,-154200.2344,-154065.6250,-142988.4375,-144798.5469,-0.9320,-0.3500,-0.0160,192.0000,0.0000,0.0000,0.0000,0.0000,0.0000,0.0000,0.0000,0.0000,0.0000,1612661115.125030,2021-02-06 17:25:15.125029
133.000,-7452.4961,-7840.8354,-8426.9424,-8666.7764,-154200.0156,-154065.3438,-143124.0000,-144899.2188,-0.9320,-0.3500,-0.0160,192.0000,0.0000,0.0000,0.0000,0.0000,0.0000,0.0000,0.0000,0.0000,0.0000,1612661115.129400,2021-02-06 17:25:15.129400
134.000,-7492.5059,-7951.3867,-8176.1338,-8359.8428,-154199.8281,-154064.7344,-142892.1094,-144691.0469,-0.9320,-0.3500,-0.0160,192.0000,0.0000,0.0000,0.0000,0.0000,0.0000,0.0000,0.0000,0.0000,0.0000,1612661115.133770,2021-02-06 17:25:15.133772
135.000,-7458.2183,-7932.1196,-7940.6133,-8027.9419,-154199.1094,-154064.0625,-142723.1875,-144556.2969,-0.9320,-0.3500,-0.0160,192.0000,0.0000,0.0000,0.0000,0.0000,0.0000,0.0000,0.0000,0.0000,0.0000,1612661115.138140,2021-02-06 17:25:15.138143
136.000,-7414.3193,-7814.3262,-8157.2466,-8281.2539,-154198.5313,-154064.0000,-142934.0781,-144751.9219,-0.9320,-0.3500,-0.0160,192.0000,0.0000,0.0000,0.0000,0.0000,0.0000,0.0000,0.0000,0.0000,0.0000,1612661115.142510,2021-02-06 17:25:15.142514
137.000,-7440.8286,-7821.1436,-8422.2490,-8653.8350,-154198.4375,-154063.8594,-143128.1563,-144905.9688,-0.9260,-0.3480,-0.0160,192.0000,227.0000,16.0000,245.0000,32.0000,255.0000,128.0000,0.0000,0.0000,0.0000,1612661115.146090,2021-02-06 17:25:15.146086
138.000,-7488.9072,-7935.5620,-8238.6064,-8441.8740,-154197.8906,-154062.7656,-142943.3594,-144734.8281,-0.9260,-0.3480,-0.0160,192.0000,0.0000,0.0000,0.0000,0.0000,0.0000,0.0000,0.0000,0.0000,0.0000,1612661115.149660,2021-02-06 17:25:15.149657
139.000,-7465.6836,-7945.1733,-7949.2188,-8046.8735,-154196.4375,-154061.3125,-142723.1250,-144553.0469,-0.9260,-0.3480,-0.0160,192.0000,0.0000,0.0000,0.0000,0.0000,0.0000,0.0000,0.0000,0.0000,0.0000,1612661115.153230,2021-02-06 17:25:15.153229
140.000,-7416.3979,-7830.0171,-8092.6499,-8199.3350,-154196.5000,-154061.8281,-142877.9531,-144702.5938,-0.9260,-0.3480,-0.0160,192.0000,0.0000,0.0000,0.0000,0.0000,0.0000,0.0000,0.0000,0.0000,0.0000,1612661115.156800,2021-02-06 17:25:15.156801
141.000,-7429.8760,-7805.1616,-8400.0313,-8617.8486,-154196.2031,-154061.5781,-143116.9375,-144899.8125,-0.9260,-0.3480,-0.0160,192.0000,0.0000,0.0000,0.0000,0.0000,0.0000,0.0000,0.0000,0.0000,0.0000,1612661115.160370,2021-02-06 17:25:15.160372
142.000,-7482.1123,-7915.1992,-8296.7217,-8516.8193,-154195.1406,-154060.1563,-142993.0625,-144778.0156,-0.9260,-0.3480,-0.0160,192.0000,0.0000,0.0000,0.0000,0.0000,0.0000,0.0000,0.0000,0.0000,0.0000,1612661115.163940,2021-02-06 17:25:15.163944
143.000,-7472.7466,-7954.0693,-7974.3423,-8086.6597,-154194.1719,-154058.9844,-142737.6094,-144562.7813,-0.9260,-0.3480,-0.0160,192.0000,0.0000,0.0000,0.0000,0.0000,0.0000,0.0000,0.0000,0.0000,0.0000,1612661115.167520,2021-02-06 17:25:15.167516
144.000,-7422.8130,-7851.2959,-8035.8096,-8129.2847,-154196.2344,-154061.5000,-142826.6094,-144656.3906,-0.9260,-0.3480,-0.0160,192.0000,0.0000,0.0000,0.0000,0.0000,0.0000,0.0000,0.0000,0.0000,0.0000,1612661115.171090,2021-02-06 17:25:15.171087
145.000,-7423.2378,-7797.2271,-8365.2969,-8565.1436,-154196.7500,-154062.3438,-143095.1094,-144884.4063,-0.9260,-0.3480,-0.0160,192.0000,0.0000,0.0000,0.0000,0.0000,0.0000,0.0000,0.0000,0.0000,0.0000,1612661115.174660,2021-02-06 17:25:15.174659
146.000,-7476.8149,-7896.1782,-8351.0361,-8583.8965,-154196.7031,-154061.8125,-143042.3594,-144822.0156,-0.9260,-0.3480,-0.0160,192.0000,0.0000,0.0000,0.0000,0.0000,0.0000,0.0000,0.0000,0.0000,0.0000,1612661115.178230,2021-02-06 17:25:15.178231
147.000,-7479.4077,-7958.5840,-8015.3354,-8145.6235,-154193.1406,-154057.9844,-142766.2188,-144585.0625,-0.9260,-0.3500,-0.0080,192.0000,227.0000,16.0000,245.0000,16.0000,255.0000,192.0000,0.0000,0.0000,0.0000,1612661115.181800,2021-02-06 17:25:15.181803
148.000,-7426.4341,-7869.6689,-7985.1826,-8070.1641,-154191.4219,-154056.7500,-142777.9531,-144611.0469,-0.9260,-0.3500,-0.0080,192.0000,0.0000,0.0000,0.0000,0.0000,0.0000,0.0000,0.0000,0.0000,0.0000,1612661115.185370,2021-02-06 17:25:15.185374
149.000,-7414.6323,-7791.0581,-8314.4238,-8493.7070,-154193.7500,-154059.3906,-143058.0156,-144854.9688,-0.9260,-0.3500,-0.0080,192.0000,0.0000,0.0000,0.0000,0.0000,0.0000,0.0000,0.0000,0.0000,0.0000,1612661115.188950,2021-02-06 17:25:15.188946
150.000,-7466.0635,-7872.2173,-8389.9502,-8630.5449,-154194.7031,-154060.0469,-143080.2656,-144856.4375,-0.9260,-0.3500,-0.0080,192.0000,0.0000,0.0000,0.0000,0.0000,0.0000,0.0000,0.0000,0.0000,0.0000,1612661115.192520,2021-02-06 17:25:15.192518
151.000,-7483.8110,-7957.6006,-8067.8394,-8218.2666,-154191.9844,-154056.9844,-142805.1563,-144616.9844,-0.9260,-0.3500,-0.0080,192.0000,0.0000,0.0000,0.0000,0.0000,0.0000,0.0000,0.0000,0.0000,0.0000,1612661115.196090,2021-02-06 17:25:15.196089
152.000,-7437.1401,-7894.0547,-7953.5552,-8035.0493,-154192.4063,-154057.5625,-142744.5625,-144579.4844,-0.9260,-0.3500,-0.0080,192.0000,0.0000,0.0000,0.0000,0.0000,0.0000,0.0000,0.0000,0.0000,0.0000,1612661115.199970,2021-02-06 17:25:15.199970
153.000,-7411.3467,-7794.0752,-8256.6445,-8414.0459,-154193.5313,-154059.1094,-143013.7500,-144818.9844,-0.9260,-0.3500,-0.0080,192.0000,0.0000,0.0000,0.0000,0.0000,0.0000,0.0000,0.0000,0.0000,0.0000,1612661115.203850,2021-02-06 17:25:15.203850
154.000,-7454.0381,-7848.4570,-8413.1738,-8655.3330,-154192.6250,-154058.0469,-143106.4844,-144881.4844,-0.9260,-0.3500,-0.0080,192.0000,0.0000,0.0000,0.0000,0.0000,0.0000,0.0000,0.0000,0.0000,0.0000,1612661115.207730,2021-02-06 17:25:15.207731
155.000,-7487.2754,-7952.3481,-8129.2847,-8300.3428,-154192.4531,-154057.4219,-142853.0781,-144657.2188,-0.9260,-0.3500,-0.0080,192.0000,0.0000,0.0000,0.0000,0.0000,0.0000,0.0000,0.0000,0.0000,0.0000,1612661115.211610,2021-02-06 17:25:15.211611
156.000,-7447.6680,-7915.6240,-7936.7241,-8020.2305,-154192.3594,-154057.4063,-142723.2188,-144557.7969,-0.9260,-0.3500,-0.0080,192.0000,0.0000,0.0000,0.0000,0.0000,0.0000,0.0000,0.0000,0.0000,0.0000,1612661115.215490,2021-02-06 17:25:15.215492
157.000,-7411.3467,-7803.4185,-8193.8359,-8330.3164,-154193.8438,-154059.2656,-142963.5469,-144777.0469,-0.9220,-0.3500,-0.0100,192.0000,227.0000,48.0000,245.0000,16.0000,255.0000,176.0000,0.0000,0.0000,0.0000,1612661115.219370,2021-02-06 17:25:15.219372
158.000,-7443.8457,-7828.5195,-8421.1309,-8658.9316,-154192.5156,-154057.9219,-143120.9844,-144897.4375,-0.9220,-0.3500,-0.0100,192.0000,0.0000,0.0000,0.0000,0.0000,0.0000,0.0000,0.0000,0.0000,0.0000,1612661115.223250,2021-02-06 17:25:15.223253
159.000,-7487.2754,-7941.4404,-8193.3223,-8384.8994,-154192.0781,-154057.0313,-142904.7969,-144701.4063,-0.9220,-0.3500,-0.0100,192.0000,0.0000,0.0000,0.0000,0.0000,0.0000,0.0000,0.0000,0.0000,0.0000,1612661115.227130,2021-02-06 17:25:15.227133
160.000,-7455.9160,-7932.1196,-7934.5786,-8025.4829,-154190.1719,-154055.1719,-142714.2031,-144546.7969,-0.9220,-0.3500,-0.0100,192.0000,0.0000,0.0000,0.0000,0.0000,0.0000,0.0000,0.0000,0.0000,0.0000,1612661115.231010,2021-02-06 17:25:15.231014
161.000,-7411.6816,-7816.3379,-8127.5635,-8244.9551,-154192.0313,-154057.5156,-142908.0156,-144729.0000,-0.9220,-0.3500,-0.0100,192.0000,0.0000,0.0000,0.0000,0.0000,0.0000,0.0000,0.0000,0.0000,0.0000,1612661115.234890,2021-02-06 17:25:15.234894
162.000,-7433.9219,-7811.7778,-8411.1846,-8638.5469,-154192.2969,-154057.8125,-143121.2813,-144901.0781,-0.9220,-0.3500,-0.0100,192.0000,0.0000,0.0000,0.0000,0.0000,0.0000,0.0000,0.0000,0.0000,0.0000,1612661115.238780,2021-02-06 17:25:15.238775
163.000,-7482.8945,-7924.3638,-8255.1914,-8465.4766,-154190.3594,-154055.3438,-142956.7656,-144745.9063,-0.9220,-0.3500,-0.0100,192.0000,0.0000,0.0000,0.0000,0.0000,0.0000,0.0000,0.0000,0.0000,0.0000,1612661115.242660,2021-02-06 17:25:15.242655
164.000,-7465.0132,-7945.5083,-7951.2080,-8054.2944,-154189.4531,-154054.4063,-142721.7344,-144550.4531,-0.9220,-0.3500,-0.0100,192.0000,0.0000,0.0000,0.0000,0.0000,0.0000,0.0000,0.0000,0.0000,0.0000,1612661115.246540,2021-02-06 17:25:15.246535
165.000,-7413.4253,-7832.3193,-8063.3691,-8165.0474,-154188.6719,-154054.0938,-142851.6875,-144678.7500,-0.9220,-0.3500,-0.0100,192.0000,0.0000,0.0000,0.0000,0.0000,0.0000,0.0000,0.0000,0.0000,0.0000,1612661115.250420,2021-02-06 17:25:15.250416
166.000,-7422.2319,-7796.4668,-8381.7695,-8593.5977,-154188.9375,-154054.5156,-143103.9531,-144889.3438,-0.9220,-0.3500,-0.0100,192.0000,0.0000,0.0000,0.0000,0.0000,0.0000,0.0000,0.0000,0.0000,0.0000,1612661115.254300,2021-02-06 17:25:15.254296
167.000,-7475.1382,-7902.9507,-8310.8701,-8536.5332,-154187.9375,-154053.0000,-143005.4219,-144788.4219,-0.9240,-0.3500,-0.0080,192.0000,227.0000,32.0000,245.0000,16.0000,255.0000,192.0000,0.0000,0.0000,0.0000,1612661115.258870,2021-02-06 17:25:15.258868
168.000,-7474.5796,-7955.3433,-7985.0488,-8104.1162,-154190.3750,-154055.1250,-142744.5156,-144567.7656,-0.9240,-0.3500,-0.0080,192.0000,0.0000,0.0000,0.0000,0.0000,0.0000,0.0000,0.0000,0.0000,0.0000,1612661115.263440,2021-02-06 17:25:15.263440
169.000,-7422.4775,-7856.3472,-8011.6694,-8101.7471,-154190.3906,-154055.6094,-142804.1563,-144635.8906,-0.9240,-0.3500,-0.0080,192.0000,0.0000,0.0000,0.0000,0.0000,0.0000,0.0000,0.0000,0.0000,0.0000,1612661115.268010,2021-02-06 17:25:15.268012
170.000,-7417.4707,-7791.7061,-8342.8555,-8535.5498,-154190.7969,-154056.3594,-143078.4688,-144871.0781,-0.9240,-0.3500,-0.0080,192.0000,0.0000,0.0000,0.0000,0.0000,0.0000,0.0000,0.0000,0.0000,0.0000,1612661115.272580,2021-02-06 17:25:15.272584
171.000,-7471.1597,-7885.3374,-8362.7041,-8599.3643,-154191.5313,-154056.6406,-143053.8594,-144832.4375,-0.9240,-0.3500,-0.0080,192.0000,0.0000,0.0000,0.0000,0.0000,0.0000,0.0000,0.0000,0.0000,0.0000,1612661115.277160,2021-02-06 17:25:15.277155
172.000,-7480.7710,-7958.0923,-8030.6240,-8168.4673,-154189.5625,-154054.3906,-142777.2188,-144593.9844,-0.9240,-0.3500,-0.0080,192.0000,0.0000,0.0000,0.0000,0.0000,0.0000,0.0000,0.0000,0.0000,0.0000,1612661115.281730,2021-02-06 17:25:15.281727
173.000,-7431.2617,-7879.5708,-7970.0059,-8053.2661,-154190.2031,-154055.3281,-142763.1563,-144597.5938,-0.9240,-0.3500,-0.0080,192.0000,0.0000,0.0000,0.0000,0.0000,0.0000,0.0000,0.0000,0.0000,0.0000,1612661115.286300,2021-02-06 17:25:15.286299
174.000,-7414.7217,-7792.8013,-8292.6309,-8463.9795,-154192.5625,-154058.0938,-143041.9688,-144842.4219,-0.9240,-0.3500,-0.0080,192.0000,0.0000,0.0000,0.0000,0.0000,0.0000,0.0000,0.0000,0.0000,0.0000,1612661115.290870,2021-02-06 17:25:15.290871
175.000,-7461.5708,-7862.8965,-8397.9297,-8639.9551,-154191.3594,-154056.5156,-143089.4688,-144865.4063,-0.9240,-0.3500,-0.0080,192.0000,0.0000,0.0000,0.0000,0.0000,0.0000,0.0000,0.0000,0.0000,0.0000,1612661115.295440,2021-02-06 17:25:15.295443
176.000,-7487.5210,-7958.0479,-8090.0347,-8248.1738,-154191.9219,-154056.5781,-142822.7188,-144632.0781,-0.9240,-0.3500,-0.0100,192.0000,227.0000,32.0000,245.0000,16.0000,255.0000,176.0000,0.0000,0.0000,0.0000,1612661115.300020,2021-02-06 17:25:15.300015
177.000,-7442.6611,-7903.6436,-7944.7261,-8026.5557,-154191.4219,-154056.4688,-142734.7969,-144570.0938,-0.9240,-0.3500,-0.0100,192.0000,0.0000,0.0000,0.0000,0.0000,0.0000,0.0000,0.0000,0.0000,0.0000,1612661115.304590,2021-02-06 17:25:15.304587
178.000,-7411.7041,-7797.2271,-8232.1025,-8381.7471,-154191.6875,-154057.3125,-142994.4063,-144803.1094,-0.9240,-0.3500,-0.0100,192.0000,0.0000,0.0000,0.0000,0.0000,0.0000,0.0000,0.0000,0.0000,0.0000,1612661115.309160,2021-02-06 17:25:15.309158
179.000,-7451.8257,-7842.1318,-8417.9570,-8659.2217,-154191.8438,-154057.1406,-143113.5469,-144889.0469,-0.9240,-0.3500,-0.0100,192.0000,0.0000,0.0000,0.0000,0.0000,0.0000,0.0000,0.0000,0.0000,0.0000,1612661115.313730,2021-02-06 17:25:15.313730
180.000,-7488.7729,-7949.8672,-8152.5078,-8331.3223,-154191.0625,-154055.8438,-142871.6250,-144673.1563,-0.9240,-0.3500,-0.0100,192.0000,0.0000,0.0000,0.0000,0.0000,0.0000,0.0000,0.0000,0.0000,0.0000,1612661115.317280,2021-02-06 17:25:15.317275
181.000,-7450.9312,-7921.9946,-7932.2539,-8017.9502,-154189.0938,-154053.9844,-142716.4219,-144550.7813,-0.9240,-0.3500,-0.0100,192.0000,0.0000,0.0000,0.0000,0.0000,0.0000,0.0000,0.0000,0.0000,0.0000,1612661115.320820,2021-02-06 17:25:15.320820
182.000,-7410.1396,-7806.3018,-8166.2544,-8295.1572,-154189.6094,-154055.0156,-142940.2344,-144756.7344,-0.9240,-0.3500,-0.0100,192.0000,0.0000,0.0000,0.0000,0.0000,0.0000,0.0000,0.0000,0.0000,0.0000,1612661115.324360,2021-02-06 17:25:15.324364
183.000,-7441.4766,-7822.9092,-8419.4102,-8653.7900,-154191.3594,-154056.7344,-143122.6406,-144900.1250,-0.9240,-0.3500,-0.0100,192.0000,0.0000,0.0000,0.0000,0.0000,0.0000,0.0000,0.0000,0.0000,0.0000,1612661115.327910,2021-02-06 17:25:15.327909
184.000,-7486.7388,-7935.9644,-8216.0762,-8414.8057,-154189.5938,-154054.6094,-142923.3906,-144717.1406,-0.9240,-0.3500,-0.0100,192.0000,0.0000,0.0000,0.0000,0.0000,0.0000,0.0000,0.0000,0.0000,0.0000,1612661115.331450,2021-02-06 17:25:15.331454
185.000,-7462.8672,-7940.6357,-7940.7251,-8035.6309,-154190.7500,-154055.6875,-142717.1094,-144548.3750,-0.9240,-0.3500,-0.0100,192.0000,0.0000,0.0000,0.0000,0.0000,0.0000,0.0000,0.0000,0.0000,0.0000,1612661115.335000,2021-02-06 17:25:15.334998
186.000,-7415.3696,-7824.8760,-8104.6978,-8215.7861,-154191.5313,-154056.8906,-142888.2969,-144711.7344,-0.9300,-0.3460,-0.0100,192.0000,226.0000,240.0000,245.0000,48.0000,255.0000,176.0000,0.0000,0.0000,0.0000,1612661115.338540,2021-02-06 17:25:15.338543
187.000,-7431.8877,-7807.7769,-8403.0938,-8625.1357,-154190.9844,-154056.5156,-143117.1250,-144898.9531,-0.9300,-0.3460,-0.0100,192.0000,0.0000,0.0000,0.0000,0.0000,0.0000,0.0000,0.0000,0.0000,0.0000,1612661115.342090,2021-02-06 17:25:15.342088
188.000,-7484.4146,-7920.6758,-8279.6221,-8495.9648,-154191.0156,-154056.0625,-142977.6250,-144764.6406,-0.9300,-0.3460,-0.0100,192.0000,0.0000,0.0000,0.0000,0.0000,0.0000,0.0000,0.0000,0.0000,0.0000,1612661115.345630,2021-02-06 17:25:15.345633
189.000,-7471.1372,-7951.8564,-7963.0767,-8071.6392,-154189.7500,-154054.5156,-142729.2656,-144556.3906,-0.9300,-0.3460,-0.0100,192.0000,0.0000,0.0000,0.0000,0.0000,0.0000,0.0000,0.0000,0.0000,0.0000,1612661115.349180,2021-02-06 17:25:15.349177
190.000,-7419.7729,-7843.9644,-8044.5938,-8141.2651,-154190.1250,-154055.4219,-142834.5781,-144663.8594,-0.9300,-0.3460,-0.0100,192.0000,0.0000,0.0000,0.0000,0.0000,0.0000,0.0000,0.0000,0.0000,0.0000,1612661115.352720,2021-02-06 17:25:15.352722
191.000,-7425.3833,-7798.9258,-8372.4717,-8577.4590,-154192.4063,-154057.9375,-143099.3281,-144887.4375,-0.9300,-0.3460,-0.0100,192.0000,0.0000,0.0000,0.0000,0.0000,0.0000,0.0000,0.0000,0.0000,0.0000,1612661115.356270,2021-02-06 17:25:15.356266
192.000,-7478.3794,-7900.7603,-8334.7637,-8565.1211,-154191.4688,-154056.3750,-143027.2500,-144808.7031,-0.9300,-0.3460,-0.0100,192.0000,0.0000,0.0000,0.0000,0.0000,0.0000,0.0000,0.0000,0.0000,0.0000,1612661115.359810,2021-02-06 17:25:15.359811
193.000,-7479.9888,-7959.7017,-8002.1924,-8128.0103,-154190.6406,-154055.2969,-142756.7188,-144577.9688,-0.9300,-0.3460,-0.0100,192.0000,0.0000,0.0000,0.0000,0.0000,0.0000,0.0000,0.0000,0.0000,0.0000,1612661115.363360,2021-02-06 17:25:15.363356
194.000,-7430.1890,-7869.3784,-7997.6997,-8084.6479,-154192.5469,-154057.7344,-142790.8125,-144623.9688,-0.9300,-0.3460,-0.0100,192.0000,0.0000,0.0000,0.0000,0.0000,0.0000,0.0000,0.0000,0.0000,0.0000,1612661115.366900,2021-02-06 17:25:15.366901
195.000,-7419.6167,-7794.6787,-8327.1865,-8512.2148,-154192.5000,-154058.0469,-143068.0156,-144863.5938,-0.9300,-0.3460,-0.0100,192.0000,0.0000,0.0000,0.0000,0.0000,0.0000,0.0000,0.0000,0.0000,0.0000,1612661115.370970,2021-02-06 17:25:15.370972
196.000,-7469.0142,-7878.1177,-8377.5674,-8617.0889,-154190.3281,-154055.5313,-143068.4531,-144845.7969,-0.9280,-0.3480,-0.0040,192.0000,227.0000,0.0000,245.0000,32.0000,255.0000,224.0000,0.0000,0.0000,0.0000,1612661115.375040,2021-02-06 17:25:15.375043
197.000,-7483.7437,-7958.8301,-8050.4722,-8195.8701,-154187.9531,-154052.9844,-142792.0156,-144606.1875,-0.9280,-0.3480,-0.0040,192.0000,0.0000,0.0000,0.0000,0.0000,0.0000,0.0000,0.0000,0.0000,0.0000,1612661115.379110,2021-02-06 17:25:15.379114
198.000,-7434.3242,-7887.5503,-7955.9692,-8038.2012,-154187.0000,-154052.2813,-142748.5000,-144583.7344,-0.9280,-0.3480,-0.0040,192.0000,0.0000,0.0000,0.0000,0.0000,0.0000,0.0000,0.0000,0.0000,0.0000,1612661115.383190,2021-02-06 17:25:15.383185
199.000,-7411.9722,-7792.2427,-8267.7090,-8431.0996,-154188.3906,-154054.0781,-143022.2188,-144825.9375,-0.9280,-0.3480,-0.0040,192.0000,0.0000,0.0000,0.0000,0.0000,0.0000,0.0000,0.0000,0.0000,0.0000,1612661115.387260,2021-02-06 17:25:15.387257
200.000,-7459.2461,-7855.9448,-8406.7813,-8649.5439,-154190.0156,-154055.5000,-143099.5313,-144875.3281,-0.9280,-0.3480,-0.0040,192.0000,0.0000,0.0000,0.0000,0.0000,0.0000,0.0000,0.0000,0.0000,0.0000,1612661115.391330,2021-02-06 17:25:15.391328
201.000,-7490.0469,-7957.1982,-8112.7441,-8279.0410,-154190.6719,-154055.5781,-142840.6094,-144647.2813,-0.9280,-0.3480,-0.0040,192.0000,0.0000,0.0000,0.0000,0.0000,0.0000,0.0000,0.0000,0.0000,0.0000,1612661115.395400,2021-02-06 17:25:15.395399
202.000,-7447.1987,-7912.2715,-7937.9087,-8020.7446,-154189.5313,-154054.5625,-142726.2969,-144561.6250,-0.9280,-0.3480,-0.0040,192.0000,0.0000,0.0000,0.0000,0.0000,0.0000,0.0000,0.0000,0.0000,0.0000,1612661115.399470,2021-02-06 17:25:15.399470
203.000,-7411.0781,-7800.0654,-8206.4648,-8348.3096,-154188.7031,-154054.1563,-142973.3594,-144785.3594,-0.9280,-0.3480,-0.0040,192.0000,0.0000,0.0000,0.0000,0.0000,0.0000,0.0000,0.0000,0.0000,0.0000,1612661115.403540,2021-02-06 17:25:15.403542
204.000,-7445.4775,-7831.8721,-8416.6611,-8656.2490,-154186.6250,-154052.0781,-143114.6094,-144890.9531,-0.9280,-0.3480,-0.0040,192.0000,0.0000,0.0000,0.0000,0.0000,0.0000,0.0000,0.0000,0.0000,0.0000,1612661115.407610,2021-02-06 17:25:15.407613
205.000,-7485.4648,-7941.9990,-8171.9316,-8358.5459,-154185.0781,-154050.0469,-142886.2969,-144685.1563,-0.9280,-0.3480,-0.0040,192.0000,0.0000,0.0000,0.0000,0.0000,0.0000,0.0000,0.0000,0.0000,0.0000,1612661115.411680,2021-02-06 17:25:15.411684
206.000,-7452.8535,-7926.5986,-7929.5718,-8018.1738,-154184.5781,-154049.6094,-142710.7656,-144544.3750,-0.9320,-0.3460,-0.0080,192.0000,226.0000,224.0000,245.0000,48.0000,255.0000,192.0000,0.0000,0.0000,0.0000,1612661115.415760,2021-02-06 17:25:15.415755
207.000,-7411.2349,-7811.8003,-8141.3989,-8263.3506,-154187.2969,-154052.8438,-142918.8594,-144738.1719,-0.9320,-0.3460,-0.0080,192.0000,0.0000,0.0000,0.0000,0.0000,0.0000,0.0000,0.0000,0.0000,0.0000,1612661115.419830,2021-02-06 17:25:15.419826
208.000,-7437.4087,-7816.0474,-8414.1348,-8644.4697,-154188.4531,-154054.0938,-143120.5469,-144899.5156,-0.9320,-0.3460,-0.0080,192.0000,0.0000,0.0000,0.0000,0.0000,0.0000,0.0000,0.0000,0.0000,0.0000,1612661115.423900,2021-02-06 17:25:15.423897
209.000,-7487.0742,-7931.2031,-8240.5068,-8446.1426,-154188.7500,-154053.8906,-142943.4063,-144734.7813,-0.9320,-0.3460,-0.0080,192.0000,0.0000,0.0000,0.0000,0.0000,0.0000,0.0000,0.0000,0.0000,0.0000,1612661115.427970,2021-02-06 17:25:15.427969
210.000,-7464.4541,-7943.4072,-7945.1060,-8044.4370,-154186.4219,-154051.3906,-142717.0625,-144547.2031,-0.9320,-0.3460,-0.0080,192.0000,0.0000,0.0000,0.0000,0.0000,0.0000,0.0000,0.0000,0.0000,0.0000,1612661115.432560,2021-02-06 17:25:15.432561
211.000,-7414.1406,-7828.4746,-8078.5015,-8183.4873,-154185.9531,-154051.4375,-142863.8281,-144689.8125,-0.9320,-0.3460,-0.0080,192.0000,0.0000,0.0000,0.0000,0.0000,0.0000,0.0000,0.0000,0.0000,0.0000,1612661115.437150,2021-02-06 17:25:15.437154
212.000,-7427.1938,-7801.1387,-8391.1123,-8606.9189,-154186.9531,-154052.5313,-143108.5156,-144892.7031,-0.9320,-0.3460,-0.0080,192.0000,0.0000,0.0000,0.0000,0.0000,0.0000,0.0000,0.0000,0.0000,0.0000,1612661115.441750,2021-02-06 17:25:15.441746
213.000,-7477.3735,-7907.8682,-8295.9834,-8517.7129,-154183.6094,-154048.8594,-142990.3438,-144775.3281,-0.9320,-0.3460,-0.0080,192.0000,0.0000,0.0000,0.0000,0.0000,0.0000,0.0000,0.0000,0.0000,0.0000,1612661115.446340,2021-02-06 17:25:15.446338
214.000,-7468.9692,-7949.3755,-7970.3413,-8084.7373,-154182.0781,-154047.0938,-142731.3906,-144556.5313,-0.9320,-0.3460,-0.0080,192.0000,0.0000,0.0000,0.0000,0.0000,0.0000,0.0000,0.0000,0.0000,0.0000,1612661115.450930,2021-02-06 17:25:15.450931
215.000,-7420.7119,-7850.2451,-8023.1362,-8115.3369,-154186.0625,-154051.3906,-142813.4219,-144644.4844,-0.9320,-0.3460,-0.0080,192.0000,0.0000,0.0000,0.0000,0.0000,0.0000,0.0000,0.0000,0.0000,0.0000,1612661115.455520,2021-02-06 17:25:15.455523
216.000,-7419.4600,-7792.7344,-8353.6289,-8551.1289,-154186.7344,-154052.3281,-143084.1875,-144875.1563,-0.9300,-0.3460,-0.0140,192.0000,226.0000,240.0000,245.0000,48.0000,255.0000,144.0000,0.0000,0.0000,0.0000,1612661115.460120,2021-02-06 17:25:15.460116
217.000,-7471.3833,-7888.3325,-8348.5771,-8582.6445,-154185.0781,-154050.2813,-143038.7031,-144818.5313,-0.9300,-0.3460,-0.0140,192.0000,0.0000,0.0000,0.0000,0.0000,0.0000,0.0000,0.0000,0.0000,0.0000,1612661115.464710,2021-02-06 17:25:15.464708
218.000,-7479.6533,-7957.7793,-8016.8999,-8149.6021,-154185.5469,-154050.4375,-142765.5469,-144584.4375,-0.9300,-0.3460,-0.0140,192.0000,0.0000,0.0000,0.0000,0.0000,0.0000,0.0000,0.0000,0.0000,0.0000,1612661115.469300,2021-02-06 17:25:15.469301
219.000,-7428.5796,-7872.9995,-7977.4712,-8061.8267,-154185.5313,-154050.6719,-142769.5938,-144603.9063,-0.9300,-0.3460,-0.0140,192.0000,0.0000,0.0000,0.0000,0.0000,0.0000,0.0000,0.0000,0.0000,0.0000,1612661115.473890,2021-02-06 17:25:15.473893
220.000,-7412.3745,-7788.5767,-8301.9297,-8478.6650,-154184.7813,-154050.3906,-143046.5625,-144845.3125,-0.9300,-0.3460,-0.0140,192.0000,0.0000,0.0000,0.0000,0.0000,0.0000,0.0000,0.0000,0.0000,0.0000,1612661115.478490,2021-02-06 17:25:15.478486
221.000,-7461.6377,-7865.5117,-8386.5088,-8627.5273,-154184.3125,-154049.7188,-143076.3906,-144853.1563,-0.9300,-0.3460,-0.0140,192.0000,0.0000,0.0000,0.0000,0.0000,0.0000,0.0000,0.0000,0.0000,0.0000,1612661115.483080,2021-02-06 17:25:15.483078
222.000,-7482.5815,-7954.7397,-8069.0688,-8221.7979,-154183.2031,-154048.1719,-142804.2656,-144616.0938,-0.9300,-0.3460,-0.0140,192.0000,0.0000,0.0000,0.0000,0.0000,0.0000,0.0000,0.0000,0.0000,0.0000,1612661115.487670,2021-02-06 17:25:15.487670
223.000,-7435.3076,-7893.0044,-7943.5859,-8025.0581,-154182.3750,-154047.4063,-142733.8125,-144569.4844,-0.9300,-0.3460,-0.0140,192.0000,0.0000,0.0000,0.0000,0.0000,0.0000,0.0000,0.0000,0.0000,0.0000,1612661115.491250,2021-02-06 17:25:15.491250
224.000,-7407.7925,-7790.6333,-8241.9824,-8396.8350,-154183.2500,-154048.6406,-143000.1094,-144807.1563,-0.9300,-0.3460,-0.0140,192.0000,0.0000,0.0000,0.0000,0.0000,0.0000,0.0000,0.0000,0.0000,0.0000,1612661115.494830,2021-02-06 17:25:15.494831
225.000,-7448.5620,-7840.8354,-8407.2285,-8649.2529,-154181.5938,-154046.9063,-143100.4844,-144876.4531,-0.9300,-0.3460,-0.0140,192.0000,0.0000,0.0000,0.0000,0.0000,0.0000,0.0000,0.0000,0.0000,0.0000,1612661115.498410,2021-02-06 17:25:15.498411
226.000,-7481.3970,-7944.2793,-8127.2949,-8300.9678,-154179.4688,-154044.4688,-142849.0938,-144653.0625,-0.9300,-0.3460,-0.0160,192.0000,226.0000,240.0000,245.0000,48.0000,255.0000,128.0000,0.0000,0.0000,0.0000,1612661115.501990,2021-02-06 17:25:15.501991
227.000,-7444.3374,-7912.6064,-7927.5376,-8011.5801,-154180.9219,-154046.0469,-142712.8438,-144548.0781,-0.9300,-0.3460,-0.0160,192.0000,0.0000,0.0000,0.0000,0.0000,0.0000,0.0000,0.0000,0.0000,0.0000,1612661115.505570,2021-02-06 17:25:15.505571
228.000,-7408.5303,-7801.1606,-8179.5537,-8313.2617,-154183.8750,-154049.4844,-142949.9531,-144765.1094,-0.9300,-0.3460,-0.0160,192.0000,0.0000,0.0000,0.0000,0.0000,0.0000,0.0000,0.0000,0.0000,0.0000,1612661115.509150,2021-02-06 17:25:15.509151
229.000,-7440.5825,-7823.3340,-8415.4541,-8651.9580,-154183.4688,-154049.0625,-143115.7344,-144893.0938,-0.9300,-0.3460,-0.0160,192.0000,0.0000,0.0000,0.0000,0.0000,0.0000,0.0000,0.0000,0.0000,0.0000,1612661115.512730,2021-02-06 17:25:15.512731
230.000,-7481.5981,-7933.3267,-8192.2939,-8385.9717,-154179.5625,-154044.6875,-142901.6250,-144697.9531,-0.9300,-0.3460,-0.0160,192.0000,0.0000,0.0000,0.0000,0.0000,0.0000,0.0000,0.0000,0.0000,0.0000,1612661115.516310,2021-02-06 17:25:15.516311
231.000,-7454.5522,-7930.4883,-7929.8623,-8021.7500,-154180.6094,-154045.6250,-142707.5938,-144540.4063,-0.9300,-0.3460,-0.0160,192.0000,0.0000,0.0000,0.0000,0.0000,0.0000,0.0000,0.0000,0.0000,0.0000,1612661115.519890,2021-02-06 17:25:15.519891
232.000,-7407.6807,-7813.0298,-8112.0737,-8227.1182,-154180.4531,-154045.9531,-142892.5000,-144714.9531,-0.9300,-0.3460,-0.0160,192.0000,0.0000,0.0000,0.0000,0.0000,0.0000,0.0000,0.0000,0.0000,0.0000,1612661115.523470,2021-02-06 17:25:15.523471
233.000,-7429.8091,-7806.1230,-8402.8027,-8628.0410,-154182.2813,-154047.8594,-143112.8906,-144894.0000,-0.9300,-0.3460,-0.0160,192.0000,0.0000,0.0000,0.0000,0.0000,0.0000,0.0000,0.0000,0.0000,0.0000,1612661115.527050,2021-02-06 17:25:15.527051
234.000,-7480.4355,-7919.3120,-8257.8066,-8469.7910,-154181.5938,-154046.7344,-142956.9531,-144746.0000,-0.9300,-0.3460,-0.0160,192.0000,0.0000,0.0000,0.0000,0.0000,0.0000,0.0000,0.0000,0.0000,0.0000,1612661115.530630,2021-02-06 17:25:15.530631
235.000,-7464.6328,-7944.4580,-7950.1577,-8054.6519,-154181.2969,-154046.3438,-142718.1406,-144546.9219,-0.9300,-0.3460,-0.0160,192.0000,0.0000,0.0000,0.0000,0.0000,0.0000,0.0000,0.0000,0.0000,0.0000,1612661115.534210,2021-02-06 17:25:15.534211
236.000,-7412.3076,-7832.4312,-8051.7910,-8151.4575,-154180.1563,-154045.7344,-142839.3750,-144667.8125,-0.9260,-0.3420,-0.0140,192.0000,227.0000,16.0000,245.0000,80.0000,255.0000,144.0000,0.0000,0.0000,0.0000,1612661115.537790,2021-02-06 17:25:15.537791
237.000,-7417.6943,-7791.0132,-8371.5771,-8580.7676,-154178.6563,-154044.3125,-143093.6563,-144880.5781,-0.9260,-0.3420,-0.0140,192.0000,0.0000,0.0000,0.0000,0.0000,0.0000,0.0000,0.0000,0.0000,0.0000,1612661115.541870,2021-02-06 17:25:15.541873
238.000,-7468.2539,-7893.6079,-8309.1270,-8535.8398,-154175.3125,-154040.5000,-143001.2500,-144784.3750,-0.9260,-0.3420,-0.0140,192.0000,0.0000,0.0000,0.0000,0.0000,0.0000,0.0000,0.0000,0.0000,0.0000,1612661115.545950,2021-02-06 17:25:15.545954
239.000,-7465.9517,-7945.8213,-7978.2539,-8098.9307,-154174.3281,-154039.3281,-142734.6563,-144557.7969,-0.9260,-0.3420,-0.0140,192.0000,0.0000,0.0000,0.0000,0.0000,0.0000,0.0000,0.0000,0.0000,0.0000,1612661115.550040,2021-02-06 17:25:15.550035
240.000,-7418.2085,-7853.1958,-7998.5493,-8086.9502,-154178.7031,-154044.0781,-142789.9844,-144622.6250,-0.9260,-0.3420,-0.0140,192.0000,0.0000,0.0000,0.0000,0.0000,0.0000,0.0000,0.0000,0.0000,0.0000,1612661115.554120,2021-02-06 17:25:15.554116
241.000,-7415.7495,-7789.4038,-8333.9814,-8523.5693,-154183.2656,-154048.9375,-143069.6875,-144863.6875,-0.9260,-0.3420,-0.0140,192.0000,0.0000,0.0000,0.0000,0.0000,0.0000,0.0000,0.0000,0.0000,0.0000,1612661115.558200,2021-02-06 17:25:15.558197
242.000,-7468.8130,-7880.4873,-8364.5811,-8601.5996,-154183.7656,-154049.1406,-143053.9375,-144832.5938,-0.9260,-0.3420,-0.0140,192.0000,0.0000,0.0000,0.0000,0.0000,0.0000,0.0000,0.0000,0.0000,0.0000,1612661115.562280,2021-02-06 17:25:15.562279
243.000,-7482.0449,-7957.9585,-8035.5859,-8175.3066,-154183.6094,-154048.5313,-142778.8281,-144595.3906,-0.9260,-0.3420,-0.0140,192.0000,0.0000,0.0000,0.0000,0.0000,0.0000,0.0000,0.0000,0.0000,0.0000,1612661115.566360,2021-02-06 17:25:15.566360
244.000,-7432.8267,-7882.0293,-7963.9038,-8046.1582,-154183.9844,-154049.2500,-142755.1719,-144590.6094,-0.9260,-0.3420,-0.0140,192.0000,0.0000,0.0000,0.0000,0.0000,0.0000,0.0000,0.0000,0.0000,0.0000,1612661115.570440,2021-02-06 17:25:15.570441
245.000,-7413.9839,-7791.9072,-8282.8633,-8450.9258,-154185.5625,-154051.2344,-143032.0313,-144834.2500,-0.9260,-0.3400,-0.0100,192.0000,227.0000,16.0000,245.0000,96.0000,255.0000,176.0000,0.0000,0.0000,0.0000,1612661115.574520,2021-02-06 17:25:15.574522
246.000,-7460.4307,-7859.3647,-8398.8242,-8640.5361,-154184.6563,-154050.0469,-143089.0156,-144865.5781,-0.9260,-0.3400,-0.0100,192.0000,0.0000,0.0000,0.0000,0.0000,0.0000,0.0000,0.0000,0.0000,0.0000,1612661115.578600,2021-02-06 17:25:15.578603
247.000,-7485.1968,-7953.9575,-8092.4043,-8252.5771,-154182.5000,-154047.4531,-142822.0781,-144631.2500,-0.9260,-0.3400,-0.0100,192.0000,0.0000,0.0000,0.0000,0.0000,0.0000,0.0000,0.0000,0.0000,0.0000,1612661115.582690,2021-02-06 17:25:15.582685
248.000,-7440.7837,-7902.7051,-7937.1040,-8018.7104,-154182.0156,-154047.2188,-142725.3125,-144561.4063,-0.9260,-0.3400,-0.0100,192.0000,0.0000,0.0000,0.0000,0.0000,0.0000,0.0000,0.0000,0.0000,0.0000,1612661115.586770,2021-02-06 17:25:15.586766
249.000,-7409.5806,-7795.6401,-8220.0771,-8366.6826,-154183.4688,-154049.2031,-142982.5781,-144793.1250,-0.9260,-0.3400,-0.0100,192.0000,0.0000,0.0000,0.0000,0.0000,0.0000,0.0000,0.0000,0.0000,0.0000,1612661115.590850,2021-02-06 17:25:15.590847
250.000,-7448.6294,-7836.8564,-8414.8955,-8655.2881,-154183.5781,-154049.2188,-143109.9844,-144886.4688,-0.9260,-0.3400,-0.0100,192.0000,0.0000,0.0000,0.0000,0.0000,0.0000,0.0000,0.0000,0.0000,0.0000,1612661115.594930,2021-02-06 17:25:15.594928
251.000,-7485.4648,-7944.3462,-8154.8550,-8335.8818,-154181.4531,-154046.5469,-142871.4219,-144672.7188,-0.9260,-0.3400,-0.0100,192.0000,0.0000,0.0000,0.0000,0.0000,0.0000,0.0000,0.0000,0.0000,0.0000,1612661115.598990,2021-02-06 17:25:15.598988
252.000,-7449.7246,-7921.2568,-7927.5151,-8013.7036,-154180.4688,-154045.6250,-142709.8906,-144544.6094,-0.9260,-0.3400,-0.0100,192.0000,0.0000,0.0000,0.0000,0.0000,0.0000,0.0000,0.0000,0.0000,0.0000,1612661115.603050,2021-02-06 17:25:15.603047
253.000,-7408.3516,-7805.3628,-8154.0728,-8280.2480,-154181.3594,-154046.9688,-142928.1563,-144746.4063,-0.9260,-0.3400,-0.0100,192.0000,0.0000,0.0000,0.0000,0.0000,0.0000,0.0000,0.0000,0.0000,0.0000,1612661115.607110,2021-02-06 17:25:15.607107
254.000,-7434.1230,-7813.8789,-8410.0000,-8642.6367,-154179.0156,-154044.5469,-143113.1563,-144891.9531,-0.9260,-0.3400,-0.0100,192.0000,0.0000,0.0000,0.0000,0.0000,0.0000,0.0000,0.0000,0.0000,0.0000,1612661115.611170,2021-02-06 17:25:15.611167
255.000,-7479.6982,-7926.5767,-8215.2490,-8415.7891,-154176.8906,-154041.9219,-142920.0156,-144713.7969,-0.9240,-0.3460,-0.0120,192.0000,227.0000,32.0000,245.0000,48.0000,255.0000,160.0000,0.0000,0.0000,0.0000,1612661115.615230,2021-02-06 17:25:15.615226
0.000,-7456.4521,-7934.1763,-7933.3042,-8029.1934,-154177.0469,-154042.0469,-142707.2344,-144538.8750,-0.9240,-0.3460,-0.0120,192.0000,0.0000,0.0000,0.0000,0.0000,0.0000,0.0000,0.0000,0.0000,0.0000,1612661115.619290,2021-02-06 17:25:15.619286
1.000,-7411.7041,-7822.3281,-8091.0181,-8199.5811,-154181.1406,-154046.7813,-142874.0156,-144699.1563,-0.9240,-0.3460,-0.0120,192.0000,0.0000,0.0000,0.0000,0.0000,0.0000,0.0000,0.0000,0.0000,0.0000,1612661115.623350,2021-02-06 17:25:15.623345
2.000,-7429.9209,-7804.5806,-8397.1924,-8616.7314,-154183.9375,-154049.6406,-143111.0469,-144894.3750,-0.9240,-0.3460,-0.0120,192.0000,0.0000,0.0000,0.0000,0.0000,0.0000,0.0000,0.0000,0.0000,0.0000,1612661115.627410,2021-02-06 17:25:15.627405
3.000,-7480.5474,-7914.3052,-8281.8350,-8499.7197,-154181.7969,-154047.0781,-142977.6406,-144764.5781,-0.9240,-0.3460,-0.0120,192.0000,0.0000,0.0000,0.0000,0.0000,0.0000,0.0000,0.0000,0.0000,0.0000,1612661115.631470,2021-02-06 17:25:15.631465
4.000,-7469.6396,-7949.7554,-7962.7417,-8072.7124,-154181.0156,-154046.1094,-142726.3281,-144553.3281,-0.9240,-0.3460,-0.0120,192.0000,0.0000,0.0000,0.0000,0.0000,0.0000,0.0000,0.0000,0.0000,0.0000,1612661115.635520,2021-02-06 17:25:15.635524
5.000,-7417.0239,-7842.4893,-8032.7471,-8127.3623,-154180.3594,-154045.9531,-142821.7344,-144652.1250,-0.9240,-0.3460,-0.0120,192.0000,0.0000,0.0000,0.0000,0.0000,0.0000,0.0000,0.0000,0.0000,0.0000,1612661115.639580,2021-02-06 17:25:15.639584
6.000,-7419.4824,-7792.3765,-8360.9375,-8562.9307,-154181.1875,-154046.9219,-143087.6875,-144877.2344,-0.9240,-0.3460,-0.0120,192.0000,0.0000,0.0000,0.0000,0.0000,0.0000,0.0000,0.0000,0.0000,0.0000,1612661115.643640,2021-02-06 17:25:15.643644
7.000,-7471.7856,-7891.8418,-8333.4229,-8564.4502,-154179.6875,-154044.8906,-143023.8750,-144805.2500,-0.9240,-0.3460,-0.0120,192.0000,0.0000,0.0000,0.0000,0.0000,0.0000,0.0000,0.0000,0.0000,0.0000,1612661115.647700,2021-02-06 17:25:15.647703
8.000,-7474.4902,-7953.2866,-7999.7783,-8127.1611,-154178.3438,-154043.2344,-142751.2656,-144572.3281,-0.9240,-0.3460,-0.0120,192.0000,0.0000,0.0000,0.0000,0.0000,0.0000,0.0000,0.0000,0.0000,0.0000,1612661115.651760,2021-02-06 17:25:15.651763
9.000,-7423.4834,-7863.9248,-7983.1265,-8068.5547,-154178.9063,-154044.1719,-142774.8281,-144608.9844,-0.9260,-0.3480,-0.0080,192.0000,227.0000,16.0000,245.0000,32.0000,255.0000,192.0000,0.0000,0.0000,0.0000,1612661115.655770,2021-02-06 17:25:15.655768
10.000,-7412.6875,-7787.5933,-8313.0605,-8494.8027,-154180.3594,-154046.0313,-143054.0469,-144851.1875,-0.9260,-0.3480,-0.0080,192.0000,0.0000,0.0000,0.0000,0.0000,0.0000,0.0000,0.0000,0.0000,0.0000,1612661115.659770,2021-02-06 17:25:15.659773
11.000,-7462.7329,-7869.6914,-8375.1309,-8614.6973,-154179.4375,-154044.8125,-143064.7500,-144842.4688,-0.9260,-0.3480,-0.0080,192.0000,0.0000,0.0000,0.0000,0.0000,0.0000,0.0000,0.0000,0.0000,0.0000,1612661115.663780,2021-02-06 17:25:15.663778
12.000,-7479.7876,-7953.3765,-8050.9194,-8198.2842,-154177.7031,-154042.7188,-142789.6250,-144603.5313,-0.9260,-0.3480,-0.0080,192.0000,0.0000,0.0000,0.0000,0.0000,0.0000,0.0000,0.0000,0.0000,0.0000,1612661115.667780,2021-02-06 17:25:15.667783
13.000,-7433.3853,-7887.4160,-7948.3247,-8029.6626,-154178.9688,-154044.2813,-142739.4375,-144575.3438,-0.9260,-0.3480,-0.0080,192.0000,0.0000,0.0000,0.0000,0.0000,0.0000,0.0000,0.0000,0.0000,0.0000,1612661115.671790,2021-02-06 17:25:15.671788
14.000,-7411.2124,-7791.6392,-8257.7178,-8417.5771,-154182.0156,-154047.6563,-143012.6406,-144818.1094,-0.9260,-0.3480,-0.0080,192.0000,0.0000,0.0000,0.0000,0.0000,0.0000,0.0000,0.0000,0.0000,0.0000,1612661115.675790,2021-02-06 17:25:15.675793
15.000,-7454.5298,-7849.1948,-8403.4961,-8645.4980,-154180.7813,-154046.2500,-143095.9531,-144872.4219,-0.9260,-0.3480,-0.0080,192.0000,0.0000,0.0000,0.0000,0.0000,0.0000,0.0000,0.0000,0.0000,0.0000,1612661115.679800,2021-02-06 17:25:15.679798
16.000,-7485.5098,-7950.7832,-8113.1016,-8281.2539,-154180.0000,-154045.0938,-142838.6875,-144645.1563,-0.9260,-0.3480,-0.0080,192.0000,0.0000,0.0000,0.0000,0.0000,0.0000,0.0000,0.0000,0.0000,0.0000,1612661115.683800,2021-02-06 17:25:15.683803
17.000,-7446.0586,-7911.8018,-7931.2480,-8014.0166,-154181.2031,-154046.4531,-142718.4531,-144554.4688,-0.9260,-0.3480,-0.0080,192.0000,0.0000,0.0000,0.0000,0.0000,0.0000,0.0000,0.0000,0.0000,0.0000,1612661115.687810,2021-02-06 17:25:15.687808
18.000,-7407.7480,-7797.4727,-8192.2051,-8330.9199,-154179.2500,-154045.0156,-142959.9375,-144773.6719,-0.9260,-0.3480,-0.0080,192.0000,0.0000,0.0000,0.0000,0.0000,0.0000,0.0000,0.0000,0.0000,0.0000,1612661115.691810,2021-02-06 17:25:15.691813
19.000,-7444.2261,-7828.8994,-8413.8447,-8652.0693,-154180.5156,-154046.1875,-143112.2188,-144889.5625,-0.9280,-0.3500,-0.0140,192.0000,227.0000,0.0000,245.0000,16.0000,255.0000,144.0000,0.0000,0.0000,0.0000,1612661115.695820,2021-02-06 17:25:15.695818
20.000,-7484.0791,-7938.6909,-8175.5303,-8364.1563,-154177.8750,-154042.9688,-142888.1875,-144686.8750,-0.9280,-0.3500,-0.0140,192.0000,0.0000,0.0000,0.0000,0.0000,0.0000,0.0000,0.0000,0.0000,0.0000,1612661115.699820,2021-02-06 17:25:15.699823
21.000,-7451.0879,-7925.3921,-7924.0508,-8013.5024,-154175.8281,-154040.8594,-142704.4375,-144538.4688,-0.9280,-0.3500,-0.0140,192.0000,0.0000,0.0000,0.0000,0.0000,0.0000,0.0000,0.0000,0.0000,0.0000,1612661115.703830,2021-02-06 17:25:15.703829
22.000,-7406.8535,-7808.8276,-8125.4624,-8244.9326,-154176.8281,-154042.4063,-142904.2656,-144725.3125,-0.9280,-0.3500,-0.0140,192.0000,0.0000,0.0000,0.0000,0.0000,0.0000,0.0000,0.0000,0.0000,0.0000,1612661115.707830,2021-02-06 17:25:15.707834
23.000,-7430.1890,-7807.7324,-8402.6689,-8631.3496,-154176.5313,-154042.2344,-143110.7344,-144891.0938,-0.9280,-0.3500,-0.0140,192.0000,0.0000,0.0000,0.0000,0.0000,0.0000,0.0000,0.0000,0.0000,0.0000,1612661115.711640,2021-02-06 17:25:15.711643
24.000,-7478.4238,-7920.6309,-8236.3721,-8444.1982,-154174.7344,-154039.8594,-142938.6563,-144729.9063,-0.9280,-0.3500,-0.0140,192.0000,0.0000,0.0000,0.0000,0.0000,0.0000,0.0000,0.0000,0.0000,0.0000,1612661115.715450,2021-02-06 17:25:15.715452
25.000,-7459.5815,-7938.7358,-7938.0654,-8039.1177,-154174.5938,-154039.5938,-142709.5625,-144539.8125,-0.9280,-0.3500,-0.0140,192.0000,0.0000,0.0000,0.0000,0.0000,0.0000,0.0000,0.0000,0.0000,0.0000,1612661115.719260,2021-02-06 17:25:15.719261
26.000,-7413.0229,-7829.0112,-8065.5151,-8168.6011,-154178.4219,-154043.8438,-142852.5000,-144679.9063,-0.9280,-0.3500,-0.0140,192.0000,0.0000,0.0000,0.0000,0.0000,0.0000,0.0000,0.0000,0.0000,0.0000,1612661115.723070,2021-02-06 17:25:15.723071
27.000,-7427.6187,-7800.9375,-8384.4971,-8598.2236,-154182.3906,-154047.9688,-143104.4063,-144890.0625,-0.9280,-0.3500,-0.0140,192.0000,0.0000,0.0000,0.0000,0.0000,0.0000,0.0000,0.0000,0.0000,0.0000,1612661115.726880,2021-02-06 17:25:15.726880
28.000,-7479.8320,-7908.3374,-8301.7949,-8525.4463,-154180.7813,-154046.0000,-142996.4375,-144781.3594,-0.9280,-0.3500,-0.0140,192.0000,0.0000,0.0000,0.0000,0.0000,0.0000,0.0000,0.0000,0.0000,0.0000,1612661115.730690,2021-02-06 17:25:15.730689
29.000,-7470.8467,-7950.7163,-7971.3247,-8087.7998,-154176.6875,-154041.6719,-142731.6250,-144556.9219,-0.9220,-0.3500,-0.0100,192.0000,227.0000,48.0000,245.0000,16.0000,255.0000,176.0000,0.0000,0.0000,0.0000,1612661115.734500,2021-02-06 17:25:15.734498
30.000,-7418.4097,-7849.3066,-8008.9204,-8099.8696,-154176.4063,-154041.8906,-142800.5313,-144632.9063,-0.9220,-0.3500,-0.0100,192.0000,0.0000,0.0000,0.0000,0.0000,0.0000,0.0000,0.0000,0.0000,0.0000,1612661115.738310,2021-02-06 17:25:15.738308
31.000,-7416.0850,-7789.0684,-8340.5977,-8535.5273,-154177.7188,-154043.3438,-143073.8906,-144866.4844,-0.9220,-0.3500,-0.0100,192.0000,0.0000,0.0000,0.0000,0.0000,0.0000,0.0000,0.0000,0.0000,0.0000,1612661115.742120,2021-02-06 17:25:15.742117
32.000,-7469.3716,-7884.2646,-8348.4209,-8583.6729,-154177.7656,-154042.9844,-143039.2969,-144819.3906,-0.9220,-0.3500,-0.0100,192.0000,0.0000,0.0000,0.0000,0.0000,0.0000,0.0000,0.0000,0.0000,0.0000,1612661115.745930,2021-02-06 17:25:15.745927
33.000,-7475.8984,-7953.2197,-8013.9048,-8149.0659,-154174.7656,-154039.6719,-142761.9531,-144580.7813,-0.9220,-0.3500,-0.0100,192.0000,0.0000,0.0000,0.0000,0.0000,0.0000,0.0000,0.0000,0.0000,0.0000,1612661115.749740,2021-02-06 17:25:15.749736
34.000,-7424.3774,-7870.2275,-7962.6074,-8046.4937,-154173.8125,-154039.0938,-142755.9219,-144591.2188,-0.9220,-0.3500,-0.0100,192.0000,0.0000,0.0000,0.0000,0.0000,0.0000,0.0000,0.0000,0.0000,0.0000,1612661115.753550,2021-02-06 17:25:15.753545
35.000,-7408.9102,-7785.6040,-8287.2891,-8461.4766,-154175.6406,-154041.4219,-143035.0000,-144835.5000,-0.9220,-0.3500,-0.0100,192.0000,0.0000,0.0000,0.0000,0.0000,0.0000,0.0000,0.0000,0.0000,0.0000,1612661115.757350,2021-02-06 17:25:15.757354
36.000,-7458.4639,-7860.7954,-8383.3789,-8625.0459,-154176.2031,-154041.6719,-143074.9375,-144852.1250,-0.9220,-0.3500,-0.0100,192.0000,0.0000,0.0000,0.0000,0.0000,0.0000,0.0000,0.0000,0.0000,0.0000,1612661115.761160,2021-02-06 17:25:15.761164
37.000,-7479.7876,-7950.9399,-8068.1299,-8223.8096,-154173.6406,-154038.8281,-142803.1875,-144614.6563,-0.9220,-0.3500,-0.0100,192.0000,0.0000,0.0000,0.0000,0.0000,0.0000,0.0000,0.0000,0.0000,0.0000,1612661115.764880,2021-02-06 17:25:15.764883
38.000,-7433.2065,-7892.2666,-7932.1646,-8014.0166,-154172.4688,-154037.8906,-142723.4375,-144559.9844,-0.9220,-0.3500,-0.0100,192.0000,0.0000,0.0000,0.0000,0.0000,0.0000,0.0000,0.0000,0.0000,0.0000,1612661115.768600,2021-02-06 17:25:15.768603
39.000,-7404.9541,-7788.7334,-8226.0449,-8378.5283,-154173.9688,-154039.6563,-142987.4375,-144796.3125,-0.9280,-0.3500,-0.0120,192.0000,227.0000,0.0000,245.0000,16.0000,255.0000,160.0000,0.0000,0.0000,0.0000,1612661115.772320,2021-02-06 17:25:15.772322
40.000,-7448.2939,-7839.1587,-8404.1885,-8646.0342,-154175.7813,-154041.2188,-143099.8438,-144876.4688,-0.9280,-0.3500,-0.0120,192.0000,0.0000,0.0000,0.0000,0.0000,0.0000,0.0000,0.0000,0.0000,0.0000,1612661115.776040,2021-02-06 17:25:15.776042
41.000,-7485.1743,-7946.8940,-8132.9946,-8309.5518,-154176.4219,-154041.4844,-142854.9844,-144658.7813,-0.9280,-0.3500,-0.0120,192.0000,0.0000,0.0000,0.0000,0.0000,0.0000,0.0000,0.0000,0.0000,0.0000,1612661115.779760,2021-02-06 17:25:15.779761
42.000,-7449.6572,-7919.1108,-7924.8999,-8010.3286,-154178.1719,-154043.3438,-142711.3906,-144547.2031,-0.9280,-0.3500,-0.0120,192.0000,0.0000,0.0000,0.0000,0.0000,0.0000,0.0000,0.0000,0.0000,0.0000,1612661115.783480,2021-02-06 17:25:15.783481
43.000,-7412.2627,-7806.1899,-8168.8696,-8300.8115,-154180.8125,-154046.4219,-142942.6406,-144759.7031,-0.9280,-0.3500,-0.0120,192.0000,0.0000,0.0000,0.0000,0.0000,0.0000,0.0000,0.0000,0.0000,0.0000,1612661115.787200,2021-02-06 17:25:15.787200
44.000,-7444.9858,-7826.5303,-8414.3809,-8650.3711,-154182.3125,-154047.9063,-143117.5625,-144896.2344,-0.9280,-0.3500,-0.0120,192.0000,0.0000,0.0000,0.0000,0.0000,0.0000,0.0000,0.0000,0.0000,0.0000,1612661115.790920,2021-02-06 17:25:15.790920
45.000,-7489.1978,-7939.3169,-8201.9502,-8398.6006,-154180.6250,-154045.7813,-142911.8594,-144708.0938,-0.9280,-0.3500,-0.0120,192.0000,0.0000,0.0000,0.0000,0.0000,0.0000,0.0000,0.0000,0.0000,0.0000,1612661115.794640,2021-02-06 17:25:15.794639
46.000,-7459.8721,-7936.2549,-7928.9458,-8022.8457,-154177.6719,-154042.8125,-142707.6094,-144540.9063,-0.9280,-0.3500,-0.0120,192.0000,0.0000,0.0000,0.0000,0.0000,0.0000,0.0000,0.0000,0.0000,0.0000,1612661115.798360,2021-02-06 17:25:15.798359
47.000,-7414.7217,-7821.5903,-8104.5410,-8218.0879,-154180.0625,-154045.7969,-142888.1250,-144712.2500,-0.9280,-0.3500,-0.0120,192.0000,0.0000,0.0000,0.0000,0.0000,0.0000,0.0000,0.0000,0.0000,0.0000,1612661115.802080,2021-02-06 17:25:15.802078
48.000,-7432.2451,-7807.8218,-8397.4160,-8621.6709,-154178.9531,-154044.5938,-143110.9688,-144893.5000,-0.9300,-0.3520,-0.0160,192.0000,226.0000,240.0000,245.0000,0.0000,255.0000,128.0000,0.0000,0.0000,0.0000,1612661115.805800,2021-02-06 17:25:15.805798
49.000,-7480.9497,-7918.1050,-8260.0645,-8474.9316,-154175.6875,-154040.9375,-142960.2813,-144749.3750,-0.9300,-0.3520,-0.0160,192.0000,0.0000,0.0000,0.0000,0.0000,0.0000,0.0000,0.0000,0.0000,0.0000,1612661115.809520,2021-02-06 17:25:15.809517
50.000,-7466.6226,-7946.5142,-7947.9224,-8055.0317,-154174.9531,-154040.0156,-142716.6406,-144545.6563,-0.9300,-0.3520,-0.0160,192.0000,0.0000,0.0000,0.0000,0.0000,0.0000,0.0000,0.0000,0.0000,0.0000,1612661115.813240,2021-02-06 17:25:15.813237
51.000,-7416.8452,-7838.4658,-8041.8667,-8140.5498,-154176.7188,-154042.2656,-142832.2500,-144662.0781,-0.9300,-0.3520,-0.0160,192.0000,0.0000,0.0000,0.0000,0.0000,0.0000,0.0000,0.0000,0.0000,0.0000,1612661115.816960,2021-02-06 17:25:15.816956
52.000,-7423.2153,-7796.0869,-8366.5928,-8574.3076,-154177.9219,-154043.6406,-143092.4844,-144880.9219,-0.9300,-0.3520,-0.0160,192.0000,0.0000,0.0000,0.0000,0.0000,0.0000,0.0000,0.0000,0.0000,0.0000,1612661115.821360,2021-02-06 17:25:15.821358
53.000,-7476.5913,-7899.8438,-8317.7324,-8546.9492,-154177.1719,-154042.4531,-143011.6406,-144794.7969,-0.9300,-0.3520,-0.0160,192.0000,0.0000,0.0000,0.0000,0.0000,0.0000,0.0000,0.0000,0.0000,0.0000,1612661115.825760,2021-02-06 17:25:15.825759
54.000,-7475.5630,-7954.6279,-7984.9370,-8108.7432,-154175.4375,-154040.5000,-142742.0156,-144565.2188,-0.9300,-0.3520,-0.0160,192.0000,0.0000,0.0000,0.0000,0.0000,0.0000,0.0000,0.0000,0.0000,0.0000,1612661115.830160,2021-02-06 17:25:15.830161
55.000,-7424.9585,-7861.3096,-7991.2178,-8079.3062,-154176.8281,-154042.2500,-142784.8438,-144618.8281,-0.9300,-0.3520,-0.0160,192.0000,0.0000,0.0000,0.0000,0.0000,0.0000,0.0000,0.0000,0.0000,0.0000,1612661115.834560,2021-02-06 17:25:15.834562
56.000,-7417.0908,-7790.7896,-8322.4932,-8510.3594,-154177.7031,-154043.4531,-143062.1406,-144858.0000,-0.9300,-0.3520,-0.0160,192.0000,0.0000,0.0000,0.0000,0.0000,0.0000,0.0000,0.0000,0.0000,0.0000,1612661115.838960,2021-02-06 17:25:15.838963
57.000,-7467.8071,-7877.4697,-8361.9434,-8600.9736,-154176.2188,-154041.6406,-143053.6563,-144832.7969,-0.9300,-0.3520,-0.0160,192.0000,0.0000,0.0000,0.0000,0.0000,0.0000,0.0000,0.0000,0.0000,0.0000,1612661115.843360,2021-02-06 17:25:15.843364
58.000,-7480.4355,-7955.2983,-8032.2334,-8175.4634,-154173.7031,-154038.9219,-142776.5469,-144593.0000,-0.9280,-0.3520,-0.0100,192.0000,227.0000,0.0000,245.0000,0.0000,255.0000,176.0000,0.0000,0.0000,0.0000,1612661115.847770,2021-02-06 17:25:15.847766
59.000,-7430.5913,-7881.1133,-7948.7271,-8031.7861,-154172.8750,-154038.2969,-142742.7656,-144579.0313,-0.9280,-0.3520,-0.0100,192.0000,0.0000,0.0000,0.0000,0.0000,0.0000,0.0000,0.0000,0.0000,0.0000,1612661115.852170,2021-02-06 17:25:15.852167
60.000,-7408.6196,-7787.0347,-8262.9258,-8429.6025,-154173.0938,-154038.8281,-143017.0313,-144820.8594,-0.9280,-0.3520,-0.0100,192.0000,0.0000,0.0000,0.0000,0.0000,0.0000,0.0000,0.0000,0.0000,0.0000,1612661115.856570,2021-02-06 17:25:15.856568
61.000,-7455.8711,-7853.1064,-8390.5537,-8633.6289,-154173.8125,-154039.3594,-143084.3906,-144861.4531,-0.9280,-0.3520,-0.0100,192.0000,0.0000,0.0000,0.0000,0.0000,0.0000,0.0000,0.0000,0.0000,0.0000,1612661115.860970,2021-02-06 17:25:15.860970
62.000,-7482.1792,-7949.5317,-8088.0229,-8252.0625,-154171.3281,-154036.5313,-142819.3906,-144628.3906,-0.9280,-0.3520,-0.0100,192.0000,0.0000,0.0000,0.0000,0.0000,0.0000,0.0000,0.0000,0.0000,0.0000,1612661115.865370,2021-02-06 17:25:15.865371
63.000,-7439.9121,-7902.7271,-7924.1401,-8007.2217,-154171.8594,-154037.1719,-142715.2969,-144552.0938,-0.9280,-0.3520,-0.0100,192.0000,0.0000,0.0000,0.0000,0.0000,0.0000,0.0000,0.0000,0.0000,0.0000,1612661115.869770,2021-02-06 17:25:15.869772
64.000,-7409.2231,-7796.0200,-8202.9561,-8348.1309,-154175.1563,-154040.8594,-142970.7188,-144783.0000,-0.9280,-0.3520,-0.0100,192.0000,0.0000,0.0000,0.0000,0.0000,0.0000,0.0000,0.0000,0.0000,0.0000,1612661115.874170,2021-02-06 17:25:15.874174
65.000,-7450.1045,-7836.7227,-8409.0391,-8650.0576,-154178.2344,-154043.6563,-143108.9375,-144886.2656,-0.9280,-0.3520,-0.0100,192.0000,0.0000,0.0000,0.0000,0.0000,0.0000,0.0000,0.0000,0.0000,0.0000,1612661115.878580,2021-02-06 17:25:15.878575
66.000,-7488.8623,-7946.0225,-8156.3970,-8341.3135,-154176.7188,-154041.6875,-142875.4531,-144676.6719,-0.9280,-0.3520,-0.0100,192.0000,0.0000,0.0000,0.0000,0.0000,0.0000,0.0000,0.0000,0.0000,0.0000,1612661115.882450,2021-02-06 17:25:15.882452
67.000,-7455.4463,-7927.5151,-7922.0615,-8010.5967,-154176.6250,-154041.7969,-142707.6406,-144543.0000,-0.9280,-0.3520,-0.0100,192.0000,0.0000,0.0000,0.0000,0.0000,0.0000,0.0000,0.0000,0.0000,0.0000,1612661115.886330,2021-02-06 17:25:15.886329
68.000,-7413.7827,-7811.9346,-8141.1084,-8266.5020,-154178.0625,-154043.7656,-142920.7188,-144740.7656,-0.9340,-0.3520,-0.0140,192.0000,226.0000,208.0000,245.0000,0.0000,255.0000,144.0000,0.0000,0.0000,0.0000,1612661115.890210,2021-02-06 17:25:15.890206
69.000,-7438.3027,-7816.6729,-8403.4736,-8636.4453,-154175.6875,-154041.3125,-143112.1563,-144892.3125,-0.9340,-0.3520,-0.0140,192.0000,0.0000,0.0000,0.0000,0.0000,0.0000,0.0000,0.0000,0.0000,0.0000,1612661115.894080,2021-02-06 17:25:15.894083
70.000,-7485.6436,-7930.3315,-8218.3115,-8422.7402,-154174.2813,-154039.5156,-142926.1875,-144720.0938,-0.9340,-0.3520,-0.0140,192.0000,0.0000,0.0000,0.0000,0.0000,0.0000,0.0000,0.0000,0.0000,0.0000,1612661115.897960,2021-02-06 17:25:15.897959
71.000,-7462.0400,-7939.4063,-7928.6328,-8027.5396,-154172.5156,-154037.6875,-142705.8906,-144538.2656,-0.9340,-0.3520,-0.0140,192.0000,0.0000,0.0000,0.0000,0.0000,0.0000,0.0000,0.0000,0.0000,0.0000,1612661115.901840,2021-02-06 17:25:15.901836
72.000,-7412.8662,-7824.3398,-8072.7568,-8181.0063,-154172.7656,-154038.3594,-142861.4531,-144688.4063,-0.9340,-0.3520,-0.0140,192.0000,0.0000,0.0000,0.0000,0.0000,0.0000,0.0000,0.0000,0.0000,0.0000,1612661115.905710,2021-02-06 17:25:15.905713
73.000,-7427.9536,-7801.3398,-8381.5459,-8600.8164,-154174.1406,-154039.7969,-143101.8594,-144886.8906,-0.9340,-0.3520,-0.0140,192.0000,0.0000,0.0000,0.0000,0.0000,0.0000,0.0000,0.0000,0.0000,0.0000,1612661115.909590,2021-02-06 17:25:15.909590
74.000,-7479.7651,-7911.0645,-8277.2754,-8498.6689,-154172.6250,-154037.9531,-142977.1094,-144764.2813,-0.9340,-0.3520,-0.0140,192.0000,0.0000,0.0000,0.0000,0.0000,0.0000,0.0000,0.0000,0.0000,0.0000,1612661115.913470,2021-02-06 17:25:15.913467
75.000,-7469.1929,-7948.5928,-7953.7563,-8067.4150,-154170.4219,-154035.5625,-142720.6719,-144548.1406,-0.9340,-0.3520,-0.0140,192.0000,0.0000,0.0000,0.0000,0.0000,0.0000,0.0000,0.0000,0.0000,0.0000,1612661115.917340,2021-02-06 17:25:15.917344
76.000,-7416.1743,-7842.6455,-8012.8320,-8107.9160,-154169.5000,-154035.0781,-142807.2188,-144639.3906,-0.9340,-0.3520,-0.0140,192.0000,0.0000,0.0000,0.0000,0.0000,0.0000,0.0000,0.0000,0.0000,0.0000,1612661115.921220,2021-02-06 17:25:15.921221
77.000,-7418.8345,-7790.8789,-8344.2637,-8545.7197,-154172.1406,-154037.9063,-143077.5156,-144869.1875,-0.9340,-0.3520,-0.0140,192.0000,0.0000,0.0000,0.0000,0.0000,0.0000,0.0000,0.0000,0.0000,0.0000,1612661115.925100,2021-02-06 17:25:15.925098
78.000,-7473.4619,-7891.0371,-8330.2490,-8564.4951,-154173.0781,-154038.4219,-143025.2344,-144807.2656,-0.9300,-0.3480,-0.0080,192.0000,226.0000,240.0000,245.0000,32.0000,255.0000,192.0000,0.0000,0.0000,0.0000,1612661115.928980,2021-02-06 17:25:15.928975
79.000,-7477.5298,-7954.9409,-7995.7104,-8127.4067,-154170.9688,-154036.0625,-142750.6250,-144572.0156,-0.9300,-0.3480,-0.0080,192.0000,0.0000,0.0000,0.0000,0.0000,0.0000,0.0000,0.0000,0.0000,0.0000,1612661115.932850,2021-02-06 17:25:15.932852
80.000,-7424.5562,-7865.8467,-7965.8486,-8052.5288,-154169.1875,-154034.6563,-142762.5156,-144598.1719,-0.9300,-0.3480,-0.0080,192.0000,0.0000,0.0000,0.0000,0.0000,0.0000,0.0000,0.0000,0.0000,0.0000,1612661115.936650,2021-02-06 17:25:15.936646
81.000,-7411.5479,-7785.9170,-8293.6592,-8474.6855,-154169.9375,-154035.6406,-143041.0625,-144840.3438,-0.9300,-0.3480,-0.0080,192.0000,0.0000,0.0000,0.0000,0.0000,0.0000,0.0000,0.0000,0.0000,0.0000,1612661115.940440,2021-02-06 17:25:15.940440
82.000,-7461.6157,-7865.8691,-8367.0176,-8608.9756,-154169.4531,-154034.8281,-143061.2188,-144839.8750,-0.9300,-0.3480,-0.0080,192.0000,0.0000,0.0000,0.0000,0.0000,0.0000,0.0000,0.0000,0.0000,0.0000,1612661115.944240,2021-02-06 17:25:15.944235
83.000,-7482.8496,-7954.5610,-8048.0356,-8199.5811,-154170.1719,-154035.2344,-142789.5781,-144603.8906,-0.9300,-0.3480,-0.0080,192.0000,0.0000,0.0000,0.0000,0.0000,0.0000,0.0000,0.0000,0.0000,0.0000,1612661115.948030,2021-02-06 17:25:15.948029
84.000,-7436.6934,-7891.3057,-7934.8467,-8017.8389,-154170.9531,-154036.1875,-142730.0938,-144567.2969,-0.9300,-0.3480,-0.0080,192.0000,0.0000,0.0000,0.0000,0.0000,0.0000,0.0000,0.0000,0.0000,0.0000,1612661115.951820,2021-02-06 17:25:15.951824
85.000,-7411.8604,-7792.2202,-8238.8975,-8398.0645,-154172.7344,-154038.4219,-143000.0469,-144807.6719,-0.9300,-0.3480,-0.0080,192.0000,0.0000,0.0000,0.0000,0.0000,0.0000,0.0000,0.0000,0.0000,0.0000,1612661115.955620,2021-02-06 17:25:15.955618
86.000,-7454.8877,-7847.1831,-8394.9346,-8638.6582,-154172.0938,-154037.6875,-143092.3281,-144869.9219,-0.9300,-0.3480,-0.0080,192.0000,0.0000,0.0000,0.0000,0.0000,0.0000,0.0000,0.0000,0.0000,0.0000,1612661115.959410,2021-02-06 17:25:15.959413
87.000,-7485.0850,-7948.1685,-8107.7148,-8280.1367,-154168.9375,-154034.1563,-142836.0000,-144642.6250,-0.9300,-0.3480,-0.0080,192.0000,0.0000,0.0000,0.0000,0.0000,0.0000,0.0000,0.0000,0.0000,0.0000,1612661115.963210,2021-02-06 17:25:15.963207
88.000,-7445.5894,-7911.6011,-7915.8701,-8001.0078,-154169.1406,-154034.3438,-142706.8281,-144543.8906,-0.9240,-0.3500,-0.0100,192.0000,227.0000,32.0000,245.0000,16.0000,255.0000,176.0000,0.0000,0.0000,0.0000,1612661115.967000,2021-02-06 17:25:15.967002
89.000,-7410.7432,-7800.8701,-8174.8374,-8313.0830,-154172.0938,-154037.7344,-142948.7656,-144764.6719,-0.9240,-0.3500,-0.0100,192.0000,0.0000,0.0000,0.0000,0.0000,0.0000,0.0000,0.0000,0.0000,0.0000,1612661115.970800,2021-02-06 17:25:15.970796
90.000,-7444.8965,-7827.6699,-8403.1152,-8642.6143,-154172.3125,-154037.9844,-143107.4688,-144886.1719,-0.9240,-0.3500,-0.0100,192.0000,0.0000,0.0000,0.0000,0.0000,0.0000,0.0000,0.0000,0.0000,0.0000,1612661115.974590,2021-02-06 17:25:15.974591
91.000,-7486.2026,-7938.3784,-8172.7363,-8365.9443,-154169.7500,-154034.9375,-142888.9531,-144687.9063,-0.9240,-0.3500,-0.0100,192.0000,0.0000,0.0000,0.0000,0.0000,0.0000,0.0000,0.0000,0.0000,0.0000,1612661115.978390,2021-02-06 17:25:15.978385
92.000,-7456.5640,-7930.5327,-7916.1157,-8008.7861,-154169.4688,-154034.6719,-142700.5000,-144535.3125,-0.9240,-0.3500,-0.0100,192.0000,0.0000,0.0000,0.0000,0.0000,0.0000,0.0000,0.0000,0.0000,0.0000,1612661115.982180,2021-02-06 17:25:15.982180
93.000,-7413.8276,-7816.2261,-8111.0229,-8230.3369,-154172.7344,-154038.3125,-142895.9688,-144719.1875,-0.9240,-0.3500,-0.0100,192.0000,0.0000,0.0000,0.0000,0.0000,0.0000,0.0000,0.0000,0.0000,0.0000,1612661115.985970,2021-02-06 17:25:15.985974
94.000,-7434.5923,-7810.1240,-8392.6777,-8621.7607,-154171.2344,-154036.9219,-143106.9063,-144889.1250,-0.9240,-0.3500,-0.0100,192.0000,0.0000,0.0000,0.0000,0.0000,0.0000,0.0000,0.0000,0.0000,0.0000,1612661115.989770,2021-02-06 17:25:15.989769
95.000,-7483.6099,-7922.6875,-8235.9248,-8447.5957,-154169.2344,-154034.4531,-142941.8125,-144733.5469,-0.9240,-0.3500,-0.0100,192.0000,0.0000,0.0000,0.0000,0.0000,0.0000,0.0000,0.0000,0.0000,0.0000,1612661115.994310,2021-02-06 17:25:15.994306
96.000,-7466.9131,-7944.8828,-7933.3936,-8037.9106,-154169.5000,-154034.6875,-142708.3281,-144539.4063,-0.9240,-0.3500,-0.0100,192.0000,0.0000,0.0000,0.0000,0.0000,0.0000,0.0000,0.0000,0.0000,0.0000,1612661115.998840,2021-02-06 17:25:15.998843
97.000,-7416.9346,-7833.2578,-8047.7676,-8151.0996,-154170.3438,-154035.9844,-142840.1563,-144669.6719,-0.9240,-0.3500,-0.0100,192.0000,0.0000,0.0000,0.0000,0.0000,0.0000,0.0000,0.0000,0.0000,0.0000,1612661116.003380,2021-02-06 17:25:16.003380
98.000,-7427.3281,-7799.2607,-8367.3525,-8580.9688,-154172.0625,-154037.7344,-143093.5000,-144881.3438,-0.9320,-0.3460,-0.0140,192.0000,226.0000,224.0000,245.0000,48.0000,255.0000,144.0000,0.0000,0.0000,0.0000,1612661116.007920,2021-02-06 17:25:16.007917
99.000,-7482.2017,-7907.8013,-8297.8613,-8525.0449,-154172.8750,-154038.0938,-142996.4375,-144782.0156,-0.9320,-0.3460,-0.0140,192.0000,0.0000,0.0000,0.0000,0.0000,0.0000,0.0000,0.0000,0.0000,0.0000,1612661116.012450,2021-02-06 17:25:16.012454
100.000,-7478.3125,-7956.5728,-7968.5977,-8089.1182,-154171.8906,-154036.9688,-142732.4531,-144558.0938,-0.9320,-0.3460,-0.0140,192.0000,0.0000,0.0000,0.0000,0.0000,0.0000,0.0000,0.0000,0.0000,0.0000,1612661116.016990,2021-02-06 17:25:16.016991
101.000,-7427.5068,-7858.7612,-7997.2529,-8089.0068,-154173.2500,-154038.7656,-142794.0469,-144628.1250,-0.9320,-0.3460,-0.0140,192.0000,0.0000,0.0000,0.0000,0.0000,0.0000,0.0000,0.0000,0.0000,0.0000,1612661116.021530,2021-02-06 17:25:16.021528
102.000,-7422.9248,-7794.7681,-8328.9082,-8523.3682,-154174.0156,-154039.8125,-143068.6875,-144863.4688,-0.9320,-0.3460,-0.0140,192.0000,0.0000,0.0000,0.0000,0.0000,0.0000,0.0000,0.0000,0.0000,0.0000,1612661116.026070,2021-02-06 17:25:16.026065
103.000,-7476.5913,-7888.3550,-8347.9736,-8586.3105,-154174.7656,-154040.0625,-143043.5781,-144824.4844,-0.9320,-0.3460,-0.0140,192.0000,0.0000,0.0000,0.0000,0.0000,0.0000,0.0000,0.0000,0.0000,0.0000,1612661116.030600,2021-02-06 17:25:16.030602
104.000,-7486.6494,-7961.6909,-8016.1401,-8155.5479,-154173.2969,-154038.2500,-142767.2656,-144586.5938,-0.9320,-0.3460,-0.0140,192.0000,0.0000,0.0000,0.0000,0.0000,0.0000,0.0000,0.0000,0.0000,0.0000,1612661116.035140,2021-02-06 17:25:16.035139
105.000,-7435.3745,-7881.1577,-7954.1807,-8039.3188,-154171.9063,-154037.3125,-142751.7813,-144588.6406,-0.9320,-0.3460,-0.0140,192.0000,0.0000,0.0000,0.0000,0.0000,0.0000,0.0000,0.0000,0.0000,0.0000,1612661116.039680,2021-02-06 17:25:16.039676
106.000,-7417.1357,-7792.6450,-8275.1523,-8448.4678,-154172.4219,-154038.1406,-143028.8125,-144831.6250,-0.9320,-0.3460,-0.0140,192.0000,0.0000,0.0000,0.0000,0.0000,0.0000,0.0000,0.0000,0.0000,0.0000,1612661116.044210,2021-02-06 17:25:16.044213
107.000,-7466.6445,-7865.7129,-8382.0830,-8625.7393,-154173.6563,-154038.9844,-143078.1094,-144856.5938,-0.9220,-0.3440,-0.0100,192.0000,227.0000,48.0000,245.0000,64.0000,255.0000,176.0000,0.0000,0.0000,0.0000,1612661116.048750,2021-02-06 17:25:16.048750
108.000,-7490.6729,-7958.8301,-8071.4829,-8231.1641,-154172.0938,-154037.1563,-142809.1094,-144621.0313,-0.9220,-0.3440,-0.0100,192.0000,0.0000,0.0000,0.0000,0.0000,0.0000,0.0000,0.0000,0.0000,0.0000,1612661116.052290,2021-02-06 17:25:16.052286
109.000,-7443.6001,-7901.9448,-7924.4756,-8008.0933,-154169.5156,-154034.8125,-142719.5469,-144557.4219,-0.9220,-0.3440,-0.0100,192.0000,0.0000,0.0000,0.0000,0.0000,0.0000,0.0000,0.0000,0.0000,0.0000,1612661116.055820,2021-02-06 17:25:16.055821
110.000,-7411.6372,-7794.3882,-8211.0020,-8362.6816,-154168.5313,-154034.2969,-142978.2031,-144789.3594,-0.9220,-0.3440,-0.0100,192.0000,0.0000,0.0000,0.0000,0.0000,0.0000,0.0000,0.0000,0.0000,0.0000,1612661116.059360,2021-02-06 17:25:16.059357
111.000,-7450.7305,-7838.2646,-8394.8232,-8638.0771,-154167.2344,-154032.8594,-143095.4219,-144873.3906,-0.9220,-0.3440,-0.0100,192.0000,0.0000,0.0000,0.0000,0.0000,0.0000,0.0000,0.0000,0.0000,0.0000,1612661116.062890,2021-02-06 17:25:16.062893
112.000,-7488.9292,-7947.2070,-8129.8657,-8310.6689,-154167.8281,-154032.9219,-142854.5156,-144658.5156,-0.9220,-0.3440,-0.0100,192.0000,0.0000,0.0000,0.0000,0.0000,0.0000,0.0000,0.0000,0.0000,0.0000,1612661116.066430,2021-02-06 17:25:16.066429
113.000,-7454.7983,-7923.2236,-7913.9927,-8001.7676,-154169.9063,-154035.0469,-142703.9219,-144540.6094,-0.9220,-0.3440,-0.0100,192.0000,0.0000,0.0000,0.0000,0.0000,0.0000,0.0000,0.0000,0.0000,0.0000,1612661116.069970,2021-02-06 17:25:16.069965
114.000,-7414.6768,-7808.1567,-8149.0879,-8280.3154,-154170.8594,-154036.4531,-142928.4688,-144747.4531,-0.9220,-0.3440,-0.0100,192.0000,0.0000,0.0000,0.0000,0.0000,0.0000,0.0000,0.0000,0.0000,0.0000,1612661116.073500,2021-02-06 17:25:16.073501
115.000,-7443.7788,-7822.5068,-8399.0254,-8635.7305,-154170.1250,-154035.6719,-143107.7344,-144887.7969,-0.9220,-0.3440,-0.0100,192.0000,0.0000,0.0000,0.0000,0.0000,0.0000,0.0000,0.0000,0.0000,0.0000,1612661116.077040,2021-02-06 17:25:16.077037
116.000,-7488.6387,-7935.2041,-8194.5068,-8395.4717,-154168.0625,-154033.2656,-142907.7031,-144704.1875,-0.9220,-0.3440,-0.0100,192.0000,0.0000,0.0000,0.0000,0.0000,0.0000,0.0000,0.0000,0.0000,0.0000,1612661116.080570,2021-02-06 17:25:16.080573
117.000,-7464.6777,-7939.8311,-7919.6475,-8016.8550,-154169.1563,-154034.3594,-142701.9531,-144535.8906,-0.9160,-0.3480,-0.0080,192.0000,227.0000,96.0000,245.0000,32.0000,255.0000,192.0000,0.0000,0.0000,0.0000,1612661116.084110,2021-02-06 17:25:16.084108
118.000,-7416.4204,-7823.0879,-8083.3965,-8196.9209,-154169.1250,-154034.6563,-142872.8125,-144698.7500,-0.9160,-0.3480,-0.0080,192.0000,0.0000,0.0000,0.0000,0.0000,0.0000,0.0000,0.0000,0.0000,0.0000,1612661116.087640,2021-02-06 17:25:16.087644
119.000,-7434.1675,-7807.2852,-8382.5293,-8606.9639,-154169.6719,-154035.2344,-143102.4844,-144886.6875,-0.9160,-0.3480,-0.0080,192.0000,0.0000,0.0000,0.0000,0.0000,0.0000,0.0000,0.0000,0.0000,0.0000,1612661116.091180,2021-02-06 17:25:16.091180
120.000,-7485.1294,-7918.4854,-8256.5781,-8475.1553,-154168.1094,-154033.2813,-142960.8594,-144750.2656,-0.9160,-0.3480,-0.0080,192.0000,0.0000,0.0000,0.0000,0.0000,0.0000,0.0000,0.0000,0.0000,0.0000,1612661116.094720,2021-02-06 17:25:16.094716
121.000,-7473.6855,-7951.4316,-7942.1108,-8052.8193,-154168.4844,-154033.5938,-142714.4688,-144544.0625,-0.9160,-0.3480,-0.0080,192.0000,0.0000,0.0000,0.0000,0.0000,0.0000,0.0000,0.0000,0.0000,0.0000,1612661116.098250,2021-02-06 17:25:16.098252
122.000,-7424.1987,-7845.3281,-8026.3770,-8125.4624,-154170.7500,-154036.1250,-142822.2500,-144653.9063,-0.9160,-0.3480,-0.0080,192.0000,0.0000,0.0000,0.0000,0.0000,0.0000,0.0000,0.0000,0.0000,0.0000,1612661116.101790,2021-02-06 17:25:16.101788
123.000,-7429.4961,-7800.0654,-8353.4951,-8560.9189,-154172.3750,-154038.0313,-143085.9844,-144876.5625,-0.9160,-0.3480,-0.0080,192.0000,0.0000,0.0000,0.0000,0.0000,0.0000,0.0000,0.0000,0.0000,0.0000,1612661116.105500,2021-02-06 17:25:16.105499
124.000,-7483.7437,-7903.1069,-8316.0107,-8548.4688,-154172.4688,-154037.7188,-143014.2969,-144798.3125,-0.9160,-0.3480,-0.0080,192.0000,0.0000,0.0000,0.0000,0.0000,0.0000,0.0000,0.0000,0.0000,0.0000,1612661116.109210,2021-02-06 17:25:16.109209
125.000,-7485.1074,-7961.6465,-7983.2827,-8111.0454,-154171.4844,-154036.4375,-142743.6719,-144567.5469,-0.9160,-0.3480,-0.0080,192.0000,0.0000,0.0000,0.0000,0.0000,0.0000,0.0000,0.0000,0.0000,0.0000,1612661116.112920,2021-02-06 17:25:16.112920
126.000,-7433.8101,-7869.6465,-7978.1196,-8067.2808,-154171.9531,-154037.3125,-142776.7656,-144612.5469,-0.9160,-0.3480,-0.0080,192.0000,0.0000,0.0000,0.0000,0.0000,0.0000,0.0000,0.0000,0.0000,0.0000,1612661116.116630,2021-02-06 17:25:16.116630
127.000,-7424.4893,-7796.3105,-8309.0146,-8496.2109,-154172.9219,-154038.6563,-143054.9844,-144853.0156,-0.9240,-0.3500,-0.0080,192.0000,227.0000,32.0000,245.0000,16.0000,255.0000,192.0000,0.0000,0.0000,0.0000,1612661116.120340,2021-02-06 17:25:16.120341
128.000,-7475.8311,-7881.8062,-8360.2676,-8601.7559,-154172.5625,-154037.9375,-143056.4844,-144836.5781,-0.9240,-0.3500,-0.0080,192.0000,0.0000,0.0000,0.0000,0.0000,0.0000,0.0000,0.0000,0.0000,0.0000,1612661116.124050,2021-02-06 17:25:16.124052
129.000,-7491.0977,-7963.0991,-8033.7529,-8181.0063,-154171.0625,-154035.9844,-142780.6094,-144597.6250,-0.9240,-0.3500,-0.0080,192.0000,0.0000,0.0000,0.0000,0.0000,0.0000,0.0000,0.0000,0.0000,0.0000,1612661116.127760,2021-02-06 17:25:16.127762
130.000,-7442.9517,-7892.9370,-7941.4404,-8025.7065,-154171.3125,-154036.6094,-142739.1719,-144576.9531,-0.9240,-0.3500,-0.0080,192.0000,0.0000,0.0000,0.0000,0.0000,0.0000,0.0000,0.0000,0.0000,0.0000,1612661116.131470,2021-02-06 17:25:16.131473
131.000,-7420.3989,-7797.4507,-8253.2695,-8418.8740,-154172.3438,-154038.0938,-143012.6406,-144818.9531,-0.9240,-0.3500,-0.0080,192.0000,0.0000,0.0000,0.0000,0.0000,0.0000,0.0000,0.0000,0.0000,0.0000,1612661116.135180,2021-02-06 17:25:16.135184
132.000,-7465.0801,-7858.6494,-8388.8779,-8633.6514,-154171.4375,-154036.8438,-143086.7813,-144865.1406,-0.9240,-0.3500,-0.0080,192.0000,0.0000,0.0000,0.0000,0.0000,0.0000,0.0000,0.0000,0.0000,0.0000,1612661116.138890,2021-02-06 17:25:16.138894
133.000,-7494.5845,-7958.3828,-8092.9629,-8261.0254,-154170.6406,-154035.6406,-142826.0625,-144635.4688,-0.9240,-0.3500,-0.0080,192.0000,0.0000,0.0000,0.0000,0.0000,0.0000,0.0000,0.0000,0.0000,0.0000,1612661116.142610,2021-02-06 17:25:16.142605
134.000,-7450.5293,-7912.1597,-7917.3677,-8002.2373,-154168.2500,-154033.5781,-142711.1250,-144549.1250,-0.9240,-0.3500,-0.0080,192.0000,0.0000,0.0000,0.0000,0.0000,0.0000,0.0000,0.0000,0.0000,0.0000,1612661116.146320,2021-02-06 17:25:16.146316
135.000,-7417.3369,-7802.9043,-8189.0532,-8333.1104,-154170.0625,-154035.9531,-142961.2188,-144775.7500,-0.9240,-0.3500,-0.0080,192.0000,0.0000,0.0000,0.0000,0.0000,0.0000,0.0000,0.0000,0.0000,0.0000,1612661116.150030,2021-02-06 17:25:16.150026
136.000,-7454.0605,-7837.0576,-8400.7236,-8642.3906,-154170.1406,-154035.7656,-143104.0938,-144882.9688,-0.9240,-0.3500,-0.0080,192.0000,0.0000,0.0000,0.0000,0.0000,0.0000,0.0000,0.0000,0.0000,0.0000,1612661116.153740,2021-02-06 17:25:16.153737
137.000,-7494.1147,-7947.2070,-8155.3911,-8343.9287,-154168.6563,-154033.7188,-142875.5625,-144677.1094,-0.9240,-0.3500,-0.0120,192.0000,227.0000,32.0000,245.0000,16.0000,255.0000,160.0000,0.0000,0.0000,0.0000,1612661116.157450,2021-02-06 17:25:16.157447
138.000,-7463.3589,-7933.5278,-7915.1099,-8005.9697,-154170.0156,-154035.1406,-142702.4219,-144538.7813,-0.9240,-0.3500,-0.0120,192.0000,0.0000,0.0000,0.0000,0.0000,0.0000,0.0000,0.0000,0.0000,0.0000,1612661116.161160,2021-02-06 17:25:16.161158
139.000,-7420.1309,-7817.0977,-8125.5068,-8250.0508,-154170.9219,-154036.6406,-142909.0469,-144731.2500,-0.9240,-0.3500,-0.0120,192.0000,0.0000,0.0000,0.0000,0.0000,0.0000,0.0000,0.0000,0.0000,0.0000,1612661116.165720,2021-02-06 17:25:16.165723
140.000,-7445.1646,-7820.2271,-8396.2539,-8629.1367,-154170.6875,-154036.2969,-143108.7813,-144890.6406,-0.9240,-0.3500,-0.0120,192.0000,0.0000,0.0000,0.0000,0.0000,0.0000,0.0000,0.0000,0.0000,0.0000,1612661116.170290,2021-02-06 17:25:16.170289
141.000,-7493.4443,-7934.0869,-8220.4795,-8428.4404,-154169.5625,-154034.7344,-142929.7969,-144724.0313,-0.9240,-0.3500,-0.0120,192.0000,0.0000,0.0000,0.0000,0.0000,0.0000,0.0000,0.0000,0.0000,0.0000,1612661116.174850,2021-02-06 17:25:16.174854
142.000,-7472.7915,-7948.3022,-7927.1353,-8029.0146,-154169.1875,-154034.4063,-142705.8750,-144538.7813,-0.9240,-0.3500,-0.0120,192.0000,0.0000,0.0000,0.0000,0.0000,0.0000,0.0000,0.0000,0.0000,0.0000,1612661116.179420,2021-02-06 17:25:16.179419
143.000,-7424.6904,-7835.5381,-8063.1455,-8170.9482,-154170.9063,-154036.6094,-142855.1563,-144683.9844,-0.9240,-0.3500,-0.0120,192.0000,0.0000,0.0000,0.0000,0.0000,0.0000,0.0000,0.0000,0.0000,0.0000,1612661116.183980,2021-02-06 17:25:16.183984
144.000,-7435.1289,-7805.6982,-8372.5830,-8591.3398,-154169.1406,-154034.9688,-143096.7813,-144883.7500,-0.9240,-0.3500,-0.0120,192.0000,0.0000,0.0000,0.0000,0.0000,0.0000,0.0000,0.0000,0.0000,0.0000,1612661116.188550,2021-02-06 17:25:16.188550
145.000,-7487.6328,-7914.7524,-8278.8848,-8503.4307,-154168.1719,-154033.4844,-142980.3281,-144768.1094,-0.9240,-0.3500,-0.0120,192.0000,0.0000,0.0000,0.0000,0.0000,0.0000,0.0000,0.0000,0.0000,0.0000,1612661116.193120,2021-02-06 17:25:16.193115
146.000,-7479.9888,-7956.7515,-7954.0244,-8071.1030,-154167.2656,-154032.3438,-142722.1719,-144550.1563,-0.9240,-0.3500,-0.0120,192.0000,0.0000,0.0000,0.0000,0.0000,0.0000,0.0000,0.0000,0.0000,0.0000,1612661116.197680,2021-02-06 17:25:16.197680
147.000,-7427.0820,-7852.7041,-8002.7290,-8098.0142,-154166.4844,-154031.9375,-142800.2656,-144634.0156,-0.9240,-0.3500,-0.0120,192.0000,227.0000,32.0000,245.0000,16.0000,255.0000,160.0000,0.0000,0.0000,0.0000,1612661116.202250,2021-02-06 17:25:16.202245
148.000,-7425.1597,-7794.5894,-8332.3281,-8532.9346,-154166.1406,-154031.8750,-143069.9531,-144863.6406,-0.9240,-0.3500,-0.0120,192.0000,0.0000,0.0000,0.0000,0.0000,0.0000,0.0000,0.0000,0.0000,0.0000,1612661116.206810,2021-02-06 17:25:16.206811
149.000,-7477.9546,-7891.0371,-8327.2988,-8564.1152,-154165.1875,-154030.5000,-143024.4531,-144807.1719,-0.9240,-0.3500,-0.0120,192.0000,0.0000,0.0000,0.0000,0.0000,0.0000,0.0000,0.0000,0.0000,0.0000,1612661116.211380,2021-02-06 17:25:16.211376
150.000,-7486.5376,-7960.5957,-7995.9785,-8131.0947,-154165.9063,-154031.0000,-142751.6875,-144573.3281,-0.9240,-0.3500,-0.0120,192.0000,0.0000,0.0000,0.0000,0.0000,0.0000,0.0000,0.0000,0.0000,0.0000,1612661116.215940,2021-02-06 17:25:16.215941
151.000,-7435.8662,-7875.9722,-7957.6230,-8044.7280,-154166.1406,-154031.6563,-142756.8125,-144593.8281,-0.9240,-0.3500,-0.0120,192.0000,0.0000,0.0000,0.0000,0.0000,0.0000,0.0000,0.0000,0.0000,0.0000,1612661116.220510,2021-02-06 17:25:16.220507
152.000,-7421.7622,-7793.7847,-8284.2041,-8463.8008,-154167.4375,-154033.1563,-143035.6406,-144837.2031,-0.9240,-0.3500,-0.0120,192.0000,0.0000,0.0000,0.0000,0.0000,0.0000,0.0000,0.0000,0.0000,0.0000,1612661116.225070,2021-02-06 17:25:16.225072
153.000,-7471.0254,-7870.8535,-8367.8447,-8611.6348,-154166.8125,-154032.3281,-143064.7031,-144844.2344,-0.9240,-0.3500,-0.0120,192.0000,0.0000,0.0000,0.0000,0.0000,0.0000,0.0000,0.0000,0.0000,0.0000,1612661116.228980,2021-02-06 17:25:16.228984
154.000,-7489.7563,-7957.6899,-8047.7451,-8203.2021,-154163.4219,-154028.6094,-142790.1406,-144604.6094,-0.9240,-0.3500,-0.0120,192.0000,0.0000,0.0000,0.0000,0.0000,0.0000,0.0000,0.0000,0.0000,0.0000,1612661116.232900,2021-02-06 17:25:16.232896
155.000,-7444.3823,-7897.6982,-7924.6318,-8009.0542,-154164.4688,-154029.8594,-142722.0781,-144560.6250,-0.9240,-0.3500,-0.0120,192.0000,0.0000,0.0000,0.0000,0.0000,0.0000,0.0000,0.0000,0.0000,0.0000,1612661116.236810,2021-02-06 17:25:16.236809
156.000,-7420.0859,-7798.6577,-8226.3584,-8384.2734,-154168.3125,-154034.0938,-142991.7188,-144801.4375,-0.9240,-0.3500,-0.0120,192.0000,0.0000,0.0000,0.0000,0.0000,0.0000,0.0000,0.0000,0.0000,0.0000,1612661116.240720,2021-02-06 17:25:16.240721
157.000,-7462.3530,-7850.5581,-8392.2529,-8637.1611,-154168.0000,-154033.5781,-143092.9063,-144871.4688,-0.9300,-0.3520,-0.0100,192.0000,226.0000,240.0000,245.0000,0.0000,255.0000,176.0000,0.0000,0.0000,0.0000,1612661116.244630,2021-02-06 17:25:16.244633
158.000,-7495.6123,-7954.4717,-8112.2974,-8288.7422,-154166.3281,-154031.5156,-142841.4375,-144648.2813,-0.9300,-0.3520,-0.0100,192.0000,0.0000,0.0000,0.0000,0.0000,0.0000,0.0000,0.0000,0.0000,0.0000,1612661116.248550,2021-02-06 17:25:16.248545
159.000,-7456.2065,-7920.3179,-7910.7065,-7997.8115,-154165.3906,-154030.6563,-142703.3594,-144541.3281,-0.9300,-0.3520,-0.0100,192.0000,0.0000,0.0000,0.0000,0.0000,0.0000,0.0000,0.0000,0.0000,0.0000,1612661116.252460,2021-02-06 17:25:16.252458
160.000,-7417.7168,-7806.1899,-8160.3086,-8297.3477,-154165.8594,-154031.6094,-142938.1719,-144756.0156,-0.9300,-0.3520,-0.0100,192.0000,0.0000,0.0000,0.0000,0.0000,0.0000,0.0000,0.0000,0.0000,0.0000,1612661116.256370,2021-02-06 17:25:16.256370
161.000,-7449.7466,-7828.5640,-8395.5381,-8635.3057,-154165.2969,-154030.9375,-143103.2656,-144883.3750,-0.9300,-0.3520,-0.0100,192.0000,0.0000,0.0000,0.0000,0.0000,0.0000,0.0000,0.0000,0.0000,0.0000,1612661116.260280,2021-02-06 17:25:16.260282
162.000,-7493.7798,-7941.4854,-8174.7700,-8371.5996,-154164.3125,-154029.4844,-142891.8750,-144691.0000,-0.9300,-0.3520,-0.0100,192.0000,0.0000,0.0000,0.0000,0.0000,0.0000,0.0000,0.0000,0.0000,0.0000,1612661116.264190,2021-02-06 17:25:16.264194
163.000,-7466.1304,-7937.9087,-7911.9810,-8007.1992,-154164.6875,-154029.9375,-142697.6406,-144533.2656,-0.9300,-0.3520,-0.0100,192.0000,0.0000,0.0000,0.0000,0.0000,0.0000,0.0000,0.0000,0.0000,0.0000,1612661116.268110,2021-02-06 17:25:16.268107
164.000,-7420.7119,-7821.8140,-8095.9355,-8214.4219,-154165.9375,-154031.6094,-142884.3438,-144709.5313,-0.9300,-0.3520,-0.0100,192.0000,0.0000,0.0000,0.0000,0.0000,0.0000,0.0000,0.0000,0.0000,0.0000,1612661116.272020,2021-02-06 17:25:16.272019
165.000,-7444.9634,-7816.8965,-8387.8271,-8616.7314,-154169.4531,-154035.2500,-143105.9375,-144889.9688,-0.9300,-0.3520,-0.0100,192.0000,0.0000,0.0000,0.0000,0.0000,0.0000,0.0000,0.0000,0.0000,0.0000,1612661116.275930,2021-02-06 17:25:16.275931
166.000,-7496.6406,-7931.2256,-8243.0098,-8458.3691,-154169.6563,-154035.0000,-142950.6406,-144742.6875,-0.9280,-0.3500,-0.0100,192.0000,227.0000,0.0000,245.0000,16.0000,255.0000,176.0000,0.0000,0.0000,0.0000,1612661116.279840,2021-02-06 17:25:16.279844
167.000,-7477.4629,-7952.7949,-7931.8516,-8039.7656,-154165.7188,-154031.0313,-142708.4219,-144540.0469,-0.9280,-0.3500,-0.0100,192.0000,0.0000,0.0000,0.0000,0.0000,0.0000,0.0000,0.0000,0.0000,0.0000,1612661116.283910,2021-02-06 17:25:16.283905
168.000,-7425.2271,-7840.5225,-8033.9321,-8137.3086,-154164.6094,-154030.3594,-142830.2344,-144661.4688,-0.9280,-0.3500,-0.0100,192.0000,0.0000,0.0000,0.0000,0.0000,0.0000,0.0000,0.0000,0.0000,0.0000,1612661116.287970,2021-02-06 17:25:16.287967
169.000,-7433.0498,-7801.7866,-8355.4395,-8568.5635,-154165.4531,-154031.2813,-143086.3594,-144876.2031,-0.9280,-0.3500,-0.0100,192.0000,0.0000,0.0000,0.0000,0.0000,0.0000,0.0000,0.0000,0.0000,0.0000,1612661116.292030,2021-02-06 17:25:16.292028
170.000,-7486.3364,-7907.2197,-8294.8213,-8525.3799,-154164.7344,-154030.1406,-142996.1563,-144782.3906,-0.9280,-0.3500,-0.0100,192.0000,0.0000,0.0000,0.0000,0.0000,0.0000,0.0000,0.0000,0.0000,0.0000,1612661116.296090,2021-02-06 17:25:16.296090
171.000,-7482.7827,-7957.9360,-7962.6299,-8087.2183,-154162.3438,-154027.5938,-142728.2188,-144554.5781,-0.9280,-0.3500,-0.0100,192.0000,0.0000,0.0000,0.0000,0.0000,0.0000,0.0000,0.0000,0.0000,0.0000,1612661116.300150,2021-02-06 17:25:16.300152
172.000,-7432.2007,-7862.2705,-7980.3770,-8072.9805,-154163.7500,-154029.3750,-142780.9219,-144616.6719,-0.9280,-0.3500,-0.0100,192.0000,0.0000,0.0000,0.0000,0.0000,0.0000,0.0000,0.0000,0.0000,0.0000,1612661116.304210,2021-02-06 17:25:16.304213
173.000,-7427.3501,-7796.3555,-8313.1055,-8506.9844,-154165.8281,-154031.6563,-143058.1094,-144855.0313,-0.9280,-0.3500,-0.0100,192.0000,0.0000,0.0000,0.0000,0.0000,0.0000,0.0000,0.0000,0.0000,0.0000,1612661116.308280,2021-02-06 17:25:16.308275
174.000,-7478.6250,-7885.7173,-8341.0898,-8582.2197,-154164.5313,-154029.9063,-143040.1250,-144821.8594,-0.9280,-0.3500,-0.0100,192.0000,0.0000,0.0000,0.0000,0.0000,0.0000,0.0000,0.0000,0.0000,0.0000,1612661116.312340,2021-02-06 17:25:16.312337
175.000,-7490.3599,-7961.6465,-8010.3511,-8154.0503,-154162.8125,-154028.0156,-142763.5781,-144583.2344,-0.9280,-0.3500,-0.0100,192.0000,0.0000,0.0000,0.0000,0.0000,0.0000,0.0000,0.0000,0.0000,0.0000,1612661116.316400,2021-02-06 17:25:16.316398
176.000,-7440.7168,-7885.1587,-7938.7134,-8025.3042,-154162.5938,-154028.1875,-142739.9531,-144578.4375,-0.9340,-0.3520,-0.0100,192.0000,226.0000,208.0000,245.0000,0.0000,255.0000,176.0000,0.0000,0.0000,0.0000,1612661116.320460,2021-02-06 17:25:16.320460
177.000,-7421.7178,-7794.9917,-8257.6729,-8430.3174,-154164.0000,-154029.9844,-143016.8438,-144822.0000,-0.9340,-0.3520,-0.0100,192.0000,0.0000,0.0000,0.0000,0.0000,0.0000,0.0000,0.0000,0.0000,0.0000,1612661116.324520,2021-02-06 17:25:16.324522
178.000,-7469.3267,-7863.7012,-8373.8350,-8619.9727,-154164.0469,-154029.7500,-143074.1094,-144853.6250,-0.9340,-0.3520,-0.0100,192.0000,0.0000,0.0000,0.0000,0.0000,0.0000,0.0000,0.0000,0.0000,0.0000,1612661116.328580,2021-02-06 17:25:16.328583
179.000,-7496.0371,-7959.9478,-8068.5103,-8232.9961,-154163.6250,-154028.7656,-142808.3281,-144620.7031,-0.9340,-0.3520,-0.0100,192.0000,0.0000,0.0000,0.0000,0.0000,0.0000,0.0000,0.0000,0.0000,0.0000,1612661116.332650,2021-02-06 17:25:16.332645
180.000,-7452.6973,-7909.3208,-7914.6182,-8000.7173,-154163.9375,-154029.2344,-142713.0000,-144552.2813,-0.9340,-0.3520,-0.0100,192.0000,0.0000,0.0000,0.0000,0.0000,0.0000,0.0000,0.0000,0.0000,0.0000,1612661116.336710,2021-02-06 17:25:16.336706
181.000,-7421.0249,-7801.9209,-8197.3232,-8348.5771,-154164.6406,-154030.4688,-142969.9375,-144783.5469,-0.9340,-0.3520,-0.0100,192.0000,0.0000,0.0000,0.0000,0.0000,0.0000,0.0000,0.0000,0.0000,0.0000,1612661116.340610,2021-02-06 17:25:16.340609
182.000,-7459.8721,-7843.2271,-8390.9785,-8635.8867,-154164.2188,-154029.9063,-143096.2813,-144875.8594,-0.9340,-0.3520,-0.0100,192.0000,0.0000,0.0000,0.0000,0.0000,0.0000,0.0000,0.0000,0.0000,0.0000,1612661116.344510,2021-02-06 17:25:16.344511
183.000,-7497.0430,-7951.0518,-8130.7148,-8316.0557,-154162.5469,-154027.8594,-142857.5781,-144662.1406,-0.9340,-0.3520,-0.0100,192.0000,0.0000,0.0000,0.0000,0.0000,0.0000,0.0000,0.0000,0.0000,0.0000,1612661116.348410,2021-02-06 17:25:16.348414
184.000,-7461.2134,-7927.6270,-7903.7104,-7994.3022,-154161.4688,-154026.7813,-142696.2969,-144534.3281,-0.9340,-0.3520,-0.0100,192.0000,0.0000,0.0000,0.0000,0.0000,0.0000,0.0000,0.0000,0.0000,0.0000,1612661116.352320,2021-02-06 17:25:16.352316
185.000,-7423.0811,-7814.9741,-8133.8667,-8264.8027,-154165.5000,-154031.1563,-142918.2500,-144739.7188,-0.9340,-0.3520,-0.0100,192.0000,0.0000,0.0000,0.0000,0.0000,0.0000,0.0000,0.0000,0.0000,0.0000,1612661116.356220,2021-02-06 17:25:16.356219
186.000,-7453.4570,-7828.3408,-8393.4600,-8630.8574,-154167.5156,-154033.2188,-143107.0625,-144888.9688,-0.9300,-0.3520,-0.0100,192.0000,226.0000,240.0000,245.0000,0.0000,255.0000,176.0000,0.0000,0.0000,0.0000,1612661116.360120,2021-02-06 17:25:16.360121
187.000,-7498.9429,-7940.9038,-8197.5469,-8402.6914,-154165.1406,-154030.4063,-142913.2344,-144710.2344,-0.9300,-0.3520,-0.0100,192.0000,0.0000,0.0000,0.0000,0.0000,0.0000,0.0000,0.0000,0.0000,0.0000,1612661116.364020,2021-02-06 17:25:16.364024
188.000,-7471.5396,-7943.9663,-7911.5786,-8012.1167,-154161.0469,-154026.1719,-142696.4219,-144531.4219,-0.9300,-0.3520,-0.0100,192.0000,0.0000,0.0000,0.0000,0.0000,0.0000,0.0000,0.0000,0.0000,0.0000,1612661116.367930,2021-02-06 17:25:16.367926
189.000,-7422.9248,-7828.1396,-8065.8726,-8179.1514,-154161.1563,-154026.7656,-142859.8125,-144688.0469,-0.9300,-0.3520,-0.0100,192.0000,0.0000,0.0000,0.0000,0.0000,0.0000,0.0000,0.0000,0.0000,0.0000,1612661116.371830,2021-02-06 17:25:16.371829
190.000,-7439.4873,-7808.7383,-8369.8789,-8594.2012,-154162.0781,-154027.8281,-143094.7188,-144881.2344,-0.9300,-0.3520,-0.0100,192.0000,0.0000,0.0000,0.0000,0.0000,0.0000,0.0000,0.0000,0.0000,0.0000,1612661116.375730,2021-02-06 17:25:16.375731
191.000,-7491.1646,-7919.6025,-8254.5439,-8476.9883,-154160.7344,-154026.1719,-142961.5000,-144751.7188,-0.9300,-0.3520,-0.0100,192.0000,0.0000,0.0000,0.0000,0.0000,0.0000,0.0000,0.0000,0.0000,0.0000,1612661116.379630,2021-02-06 17:25:16.379634
192.000,-7479.7876,-7954.5161,-7934.8911,-8049.5781,-154159.5000,-154024.6875,-142709.7813,-144540.2813,-0.9300,-0.3520,-0.0100,192.0000,0.0000,0.0000,0.0000,0.0000,0.0000,0.0000,0.0000,0.0000,0.0000,1612661116.383540,2021-02-06 17:25:16.383536
193.000,-7428.2222,-7848.0996,-8006.6182,-8106.1055,-154159.9063,-154025.4375,-142806.9688,-144640.7188,-0.9300,-0.3520,-0.0100,192.0000,0.0000,0.0000,0.0000,0.0000,0.0000,0.0000,0.0000,0.0000,0.0000,1612661116.387440,2021-02-06 17:25:16.387439
194.000,-7430.7700,-7798.1655,-8334.4961,-8541.4727,-154160.5781,-154026.3594,-143072.7500,-144865.5469,-0.9300,-0.3520,-0.0100,192.0000,0.0000,0.0000,0.0000,0.0000,0.0000,0.0000,0.0000,0.0000,0.0000,1612661116.391340,2021-02-06 17:25:16.391341
195.000,-7483.9004,-7898.5029,-8306.6904,-8542.5234,-154159.5000,-154024.9219,-143008.8750,-144793.6406,-0.9300,-0.3520,-0.0100,192.0000,0.0000,0.0000,0.0000,0.0000,0.0000,0.0000,0.0000,0.0000,0.0000,1612661116.395100,2021-02-06 17:25:16.395104
196.000,-7487.4541,-7960.5957,-7973.6270,-8105.7930,-154158.8125,-154023.9844,-142736.9844,-144561.4844,-0.9300,-0.3480,-0.0060,192.0000,226.0000,240.0000,245.0000,32.0000,255.0000,208.0000,0.0000,0.0000,0.0000,1612661116.398870,2021-02-06 17:25:16.398867
197.000,-7435.5981,-7870.0713,-7956.5947,-8047.0522,-154158.4063,-154023.9063,-142760.0781,-144597.6250,-0.9300,-0.3480,-0.0060,192.0000,0.0000,0.0000,0.0000,0.0000,0.0000,0.0000,0.0000,0.0000,0.0000,1612661116.402630,2021-02-06 17:25:16.402630
198.000,-7425.5176,-7794.5000,-8286.9541,-8473.9033,-154160.1563,-154026.1406,-143039.5781,-144840.1250,-0.9300,-0.3480,-0.0060,192.0000,0.0000,0.0000,0.0000,0.0000,0.0000,0.0000,0.0000,0.0000,0.0000,1612661116.406390,2021-02-06 17:25:16.406393
199.000,-7475.0044,-7876.0171,-8347.3477,-8592.0107,-154158.4844,-154024.0625,-143048.7031,-144830.0000,-0.9300,-0.3480,-0.0060,192.0000,0.0000,0.0000,0.0000,0.0000,0.0000,0.0000,0.0000,0.0000,0.0000,1612661116.410160,2021-02-06 17:25:16.410156
200.000,-7492.3491,-7960.1714,-8023.1138,-8175.5303,-154157.2500,-154022.3750,-142773.8906,-144591.5469,-0.9300,-0.3480,-0.0060,192.0000,0.0000,0.0000,0.0000,0.0000,0.0000,0.0000,0.0000,0.0000,0.0000,1612661116.413920,2021-02-06 17:25:16.413918
201.000,-7446.0811,-7894.2559,-7921.3237,-8007.9814,-154158.6406,-154024.0156,-142724.5156,-144564.0781,-0.9300,-0.3480,-0.0060,192.0000,0.0000,0.0000,0.0000,0.0000,0.0000,0.0000,0.0000,0.0000,0.0000,1612661116.417680,2021-02-06 17:25:16.417681
202.000,-7420.1753,-7794.6787,-8227.0957,-8392.6777,-154157.7656,-154023.5625,-142994.2031,-144803.1719,-0.9300,-0.3480,-0.0060,192.0000,0.0000,0.0000,0.0000,0.0000,0.0000,0.0000,0.0000,0.0000,0.0000,1612661116.421440,2021-02-06 17:25:16.421444
203.000,-7464.6777,-7853.5308,-8373.1416,-8620.5537,-154157.5000,-154023.0469,-143077.6406,-144857.5625,-0.9300,-0.3480,-0.0060,192.0000,0.0000,0.0000,0.0000,0.0000,0.0000,0.0000,0.0000,0.0000,0.0000,1612661116.425210,2021-02-06 17:25:16.425207
204.000,-7495.2324,-7954.6279,-8081.8096,-8255.0801,-154156.2500,-154021.4375,-142819.5469,-144629.6094,-0.9300,-0.3480,-0.0060,192.0000,0.0000,0.0000,0.0000,0.0000,0.0000,0.0000,0.0000,0.0000,0.0000,1612661116.428970,2021-02-06 17:25:16.428970
205.000,-7454.9102,-7914.3276,-7899.4639,-7987.5742,-154156.4375,-154021.7031,-142698.9688,-144538.5156,-0.9300,-0.3480,-0.0060,192.0000,0.0000,0.0000,0.0000,0.0000,0.0000,0.0000,0.0000,0.0000,0.0000,1612661116.432730,2021-02-06 17:25:16.432733
206.000,-7420.6670,-7803.9771,-8164.6675,-8309.1709,-154158.3438,-154024.1250,-142944.9844,-144762.1250,-0.9280,-0.3480,-0.0040,192.0000,227.0000,0.0000,245.0000,32.0000,255.0000,224.0000,0.0000,0.0000,0.0000,1612661116.436500,2021-02-06 17:25:16.436496
207.000,-7457.9722,-7836.3647,-8385.9268,-8629.8740,-154160.0938,-154025.8281,-143097.1406,-144877.9688,-0.9280,-0.3480,-0.0040,192.0000,0.0000,0.0000,0.0000,0.0000,0.0000,0.0000,0.0000,0.0000,0.0000,1612661116.440260,2021-02-06 17:25:16.440259
208.000,-7499.2559,-7947.3638,-8148.0151,-8342.1182,-154158.5625,-154023.9219,-142873.6875,-144676.0469,-0.9280,-0.3480,-0.0040,192.0000,0.0000,0.0000,0.0000,0.0000,0.0000,0.0000,0.0000,0.0000,0.0000,1612661116.444020,2021-02-06 17:25:16.444021
209.000,-7470.6904,-7938.2666,-7901.5200,-7996.4927,-154160.9219,-154026.2969,-142694.7813,-144532.3125,-0.9280,-0.3480,-0.0040,192.0000,0.0000,0.0000,0.0000,0.0000,0.0000,0.0000,0.0000,0.0000,0.0000,1612661116.447780,2021-02-06 17:25:16.447784
210.000,-7424.4443,-7819.5786,-8101.3672,-8226.7158,-154159.6563,-154025.4688,-142892.9531,-144717.5000,-0.9280,-0.3480,-0.0040,192.0000,0.0000,0.0000,0.0000,0.0000,0.0000,0.0000,0.0000,0.0000,0.0000,1612661116.452090,2021-02-06 17:25:16.452091
211.000,-7449.0317,-7820.0034,-8379.0430,-8613.4453,-154160.4531,-154026.1406,-143099.6250,-144883.5625,-0.9280,-0.3480,-0.0040,192.0000,0.0000,0.0000,0.0000,0.0000,0.0000,0.0000,0.0000,0.0000,0.0000,1612661116.456400,2021-02-06 17:25:16.456398
212.000,-7499.5464,-7935.1597,-8214.2432,-8427.2109,-154160.6406,-154025.9531,-142929.1406,-144724.0469,-0.9280,-0.3480,-0.0040,192.0000,0.0000,0.0000,0.0000,0.0000,0.0000,0.0000,0.0000,0.0000,0.0000,1612661116.460700,2021-02-06 17:25:16.460704
213.000,-7479.3179,-7951.5659,-7914.8418,-8021.1245,-154159.1094,-154024.2813,-142698.8750,-144532.9219,-0.9280,-0.3480,-0.0040,192.0000,0.0000,0.0000,0.0000,0.0000,0.0000,0.0000,0.0000,0.0000,0.0000,1612661116.465010,2021-02-06 17:25:16.465011
214.000,-7429.6973,-7838.6445,-8039.5200,-8148.3730,-154159.6563,-154025.3438,-142839.1250,-144670.1250,-0.9280,-0.3480,-0.0040,192.0000,0.0000,0.0000,0.0000,0.0000,0.0000,0.0000,0.0000,0.0000,0.0000,1612661116.469320,2021-02-06 17:25:16.469318
215.000,-7439.6885,-7806.0781,-8353.6514,-8573.0781,-154158.9531,-154024.8438,-143086.1250,-144875.2656,-0.9280,-0.3480,-0.0040,192.0000,0.0000,0.0000,0.0000,0.0000,0.0000,0.0000,0.0000,0.0000,0.0000,1612661116.473620,2021-02-06 17:25:16.473624
216.000,-7491.0083,-7912.5171,-8269.4521,-8498.5801,-154156.4375,-154021.9063,-142976.6563,-144765.1875,-0.9300,-0.3480,-0.0060,192.0000,226.0000,240.0000,245.0000,32.0000,255.0000,208.0000,0.0000,0.0000,0.0000,1612661116.477930,2021-02-06 17:25:16.477931
217.000,-7485.4873,-7958.2490,-7942.4463,-8064.4868,-154155.7969,-154020.9531,-142715.5625,-144544.4844,-0.9300,-0.3480,-0.0060,192.0000,0.0000,0.0000,0.0000,0.0000,0.0000,0.0000,0.0000,0.0000,0.0000,1612661116.482240,2021-02-06 17:25:16.482238
218.000,-7434.6147,-7858.3813,-7982.1875,-8078.8813,-154157.1094,-154022.6719,-142786.5313,-144622.4688,-0.9300,-0.3480,-0.0060,192.0000,0.0000,0.0000,0.0000,0.0000,0.0000,0.0000,0.0000,0.0000,0.0000,1612661116.486540,2021-02-06 17:25:16.486544
219.000,-7431.9771,-7797.9868,-8313.3730,-8514.1592,-154157.9219,-154023.7656,-143059.3906,-144855.5313,-0.9300,-0.3480,-0.0060,192.0000,0.0000,0.0000,0.0000,0.0000,0.0000,0.0000,0.0000,0.0000,0.0000,1612661116.490850,2021-02-06 17:25:16.490851
220.000,-7483.9448,-7891.7524,-8318.8047,-8559.7568,-154156.3281,-154021.7500,-143022.7500,-144806.4844,-0.9300,-0.3480,-0.0060,192.0000,0.0000,0.0000,0.0000,0.0000,0.0000,0.0000,0.0000,0.0000,0.0000,1612661116.495160,2021-02-06 17:25:16.495158
221.000,-7492.8857,-7962.8311,-7986.3228,-8127.1162,-154155.5313,-154020.7188,-142747.6875,-144570.1094,-0.9300,-0.3480,-0.0060,192.0000,0.0000,0.0000,0.0000,0.0000,0.0000,0.0000,0.0000,0.0000,0.0000,1612661116.499460,2021-02-06 17:25:16.499464
222.000,-7443.3096,-7881.8062,-7936.8584,-8026.5557,-154156.3750,-154022.0000,-142743.5469,-144582.6094,-0.9300,-0.3480,-0.0060,192.0000,0.0000,0.0000,0.0000,0.0000,0.0000,0.0000,0.0000,0.0000,0.0000,1612661116.503770,2021-02-06 17:25:16.503771
223.000,-7427.7524,-7797.1821,-8260.9141,-8441.3369,-154157.9375,-154023.8281,-143022.3906,-144826.7813,-0.9300,-0.3480,-0.0060,192.0000,0.0000,0.0000,0.0000,0.0000,0.0000,0.0000,0.0000,0.0000,0.0000,1612661116.508080,2021-02-06 17:25:16.508078
224.000,-7475.0264,-7870.0264,-8353.8076,-8601.9346,-154156.0469,-154021.6406,-143059.5938,-144840.7813,-0.9300,-0.3480,-0.0060,192.0000,0.0000,0.0000,0.0000,0.0000,0.0000,0.0000,0.0000,0.0000,0.0000,1612661116.511790,2021-02-06 17:25:16.511787
225.000,-7496.3276,-7960.1934,-8037.7539,-8199.9385,-154153.4063,-154018.5781,-142787.7188,-144603.1250,-0.9280,-0.3460,-0.0120,192.0000,227.0000,0.0000,245.0000,48.0000,255.0000,160.0000,0.0000,0.0000,0.0000,1612661116.515500,2021-02-06 17:25:16.515496
226.000,-7449.4561,-7901.3188,-7900.9614,-7989.5415,-154151.7969,-154017.2344,-142707.8438,-144548.2344,-0.9280,-0.3460,-0.0120,192.0000,0.0000,0.0000,0.0000,0.0000,0.0000,0.0000,0.0000,0.0000,0.0000,1612661116.519210,2021-02-06 17:25:16.519206
227.000,-7420.3989,-7797.2046,-8193.3896,-8353.0479,-154152.4219,-154018.2656,-142971.1875,-144783.9531,-0.9280,-0.3460,-0.0120,192.0000,0.0000,0.0000,0.0000,0.0000,0.0000,0.0000,0.0000,0.0000,0.0000,1612661116.522920,2021-02-06 17:25:16.522915
228.000,-7460.9229,-7844.9033,-8367.6885,-8617.0215,-154151.2813,-154016.9844,-143080.5313,-144861.1875,-0.9280,-0.3460,-0.0120,192.0000,0.0000,0.0000,0.0000,0.0000,0.0000,0.0000,0.0000,0.0000,0.0000,1612661116.526620,2021-02-06 17:25:16.526624
229.000,-7496.0146,-7950.9844,-8094.1250,-8278.1025,-154150.0000,-154015.3750,-142833.7813,-144641.5781,-0.9280,-0.3460,-0.0120,192.0000,0.0000,0.0000,0.0000,0.0000,0.0000,0.0000,0.0000,0.0000,0.0000,1612661116.530330,2021-02-06 17:25:16.530334
230.000,-7459.8271,-7922.5308,-7884.7119,-7977.5830,-154150.9531,-154016.2969,-142689.3125,-144529.0938,-0.9280,-0.3460,-0.0120,192.0000,0.0000,0.0000,0.0000,0.0000,0.0000,0.0000,0.0000,0.0000,0.0000,1612661116.534040,2021-02-06 17:25:16.534043
231.000,-7422.2095,-7809.4756,-8128.2339,-8268.1563,-154153.2500,-154019.0313,-142920.7656,-144741.7969,-0.9280,-0.3460,-0.0120,192.0000,0.0000,0.0000,0.0000,0.0000,0.0000,0.0000,0.0000,0.0000,0.0000,1612661116.537750,2021-02-06 17:25:16.537753
232.000,-7454.7759,-7829.9722,-8372.6953,-8616.9551,-154154.4063,-154020.0781,-143095.2344,-144877.8750,-0.9280,-0.3460,-0.0120,192.0000,0.0000,0.0000,0.0000,0.0000,0.0000,0.0000,0.0000,0.0000,0.0000,1612661116.541460,2021-02-06 17:25:16.541462
233.000,-7499.5020,-7943.1616,-8159.3027,-8364.1787,-154152.7500,-154018.1250,-142889.0625,-144689.3438,-0.9280,-0.3460,-0.0120,192.0000,0.0000,0.0000,0.0000,0.0000,0.0000,0.0000,0.0000,0.0000,0.0000,1612661116.545170,2021-02-06 17:25:16.545171
234.000,-7473.5513,-7943.3403,-7889.0254,-7991.1060,-154153.0938,-154018.3281,-142687.9219,-144525.2813,-0.9280,-0.3460,-0.0120,192.0000,0.0000,0.0000,0.0000,0.0000,0.0000,0.0000,0.0000,0.0000,0.0000,1612661116.548880,2021-02-06 17:25:16.548881
235.000,-7426.9033,-7827.1338,-8062.6987,-8184.7168,-154153.6250,-154019.4063,-142866.8906,-144695.0625,-0.9300,-0.3440,-0.0180,192.0000,226.0000,240.0000,245.0000,64.0000,255.0000,112.0000,0.0000,0.0000,0.0000,1612661116.552590,2021-02-06 17:25:16.552590
236.000,-7446.4165,-7815.1978,-8356.6240,-8589.5967,-154153.8750,-154019.7031,-143091.0781,-144877.7656,-0.9300,-0.3440,-0.0180,192.0000,0.0000,0.0000,0.0000,0.0000,0.0000,0.0000,0.0000,0.0000,0.0000,1612661116.556300,2021-02-06 17:25:16.556299
237.000,-7497.3784,-7927.4932,-8220.0098,-8443.2598,-154152.2656,-154017.7344,-142941.3906,-144734.7813,-0.9300,-0.3440,-0.0180,192.0000,0.0000,0.0000,0.0000,0.0000,0.0000,0.0000,0.0000,0.0000,0.0000,1612661116.560010,2021-02-06 17:25:16.560009
238.000,-7481.5308,-7954.1807,-7905.4990,-8020.9458,-154149.8125,-154015.1875,-142695.8125,-144529.0938,-0.9300,-0.3440,-0.0180,192.0000,0.0000,0.0000,0.0000,0.0000,0.0000,0.0000,0.0000,0.0000,0.0000,1612661116.563720,2021-02-06 17:25:16.563718
239.000,-7431.8652,-7846.0210,-7999.3540,-8106.6646,-154151.4375,-154017.1250,-142811.6875,-144645.8438,-0.9300,-0.3440,-0.0180,192.0000,0.0000,0.0000,0.0000,0.0000,0.0000,0.0000,0.0000,0.0000,0.0000,1612661116.568070,2021-02-06 17:25:16.568067
240.000,-7439.2412,-7804.6699,-8324.7285,-8541.4727,-154153.3594,-154019.1875,-143072.9688,-144865.8594,-0.9300,-0.3440,-0.0180,192.0000,0.0000,0.0000,0.0000,0.0000,0.0000,0.0000,0.0000,0.0000,0.0000,1612661116.572420,2021-02-06 17:25:16.572416
241.000,-7492.6172,-7908.4717,-8274.6602,-8512.9521,-154152.2813,-154017.6875,-142991.1719,-144778.9219,-0.9300,-0.3440,-0.0180,192.0000,0.0000,0.0000,0.0000,0.0000,0.0000,0.0000,0.0000,0.0000,0.0000,1612661116.576760,2021-02-06 17:25:16.576764
242.000,-7493.6680,-7965.3345,-7943.3628,-8076.0874,-154152.5313,-154017.7344,-142723.3281,-144551.0938,-0.9300,-0.3440,-0.0180,192.0000,0.0000,0.0000,0.0000,0.0000,0.0000,0.0000,0.0000,0.0000,0.0000,1612661116.581110,2021-02-06 17:25:16.581113
243.000,-7441.6108,-7870.3394,-7948.1011,-8045.3535,-154152.3125,-154017.7500,-142764.9063,-144603.4688,-0.9300,-0.3440,-0.0180,192.0000,0.0000,0.0000,0.0000,0.0000,0.0000,0.0000,0.0000,0.0000,0.0000,1612661116.585460,2021-02-06 17:25:16.585462
244.000,-7436.4028,-7802.4126,-8281.9473,-8479.1563,-154155.4375,-154021.3281,-143044.8750,-144845.3125,-0.9300,-0.3440,-0.0180,192.0000,0.0000,0.0000,0.0000,0.0000,0.0000,0.0000,0.0000,0.0000,0.0000,1612661116.589810,2021-02-06 17:25:16.589810
245.000,-7491.0527,-7892.9819,-8324.2139,-8572.2285,-154157.1563,-154022.8438,-143039.1719,-144822.9531,-0.9260,-0.3460,-0.0140,192.0000,227.0000,16.0000,245.0000,48.0000,255.0000,144.0000,0.0000,0.0000,0.0000,1612661116.594160,2021-02-06 17:25:16.594159
246.000,-7504.2852,-7971.2578,-7994.1235,-8146.0034,-154154.9063,-154020.2031,-142761.5625,-144582.7969,-0.9260,-0.3460,-0.0140,192.0000,0.0000,0.0000,0.0000,0.0000,0.0000,0.0000,0.0000,0.0000,0.0000,1612661116.598510,2021-02-06 17:25:16.598508
247.000,-7454.9546,-7897.1841,-7910.9302,-8002.5278,-154154.0469,-154019.6719,-142728.0469,-144568.9844,-0.9260,-0.3460,-0.0140,192.0000,0.0000,0.0000,0.0000,0.0000,0.0000,0.0000,0.0000,0.0000,0.0000,1612661116.602860,2021-02-06 17:25:16.602856
248.000,-7431.4185,-7801.3618,-8223.3408,-8398.8916,-154152.1250,-154018.1250,-143000.6250,-144809.1406,-0.9260,-0.3460,-0.0140,192.0000,0.0000,0.0000,0.0000,0.0000,0.0000,0.0000,0.0000,0.0000,0.0000,1612661116.607210,2021-02-06 17:25:16.607205
249.000,-7478.0215,-7866.8081,-8349.3154,-8601.3760,-154151.7344,-154017.4375,-143066.4063,-144848.1250,-0.9260,-0.3460,-0.0140,192.0000,0.0000,0.0000,0.0000,0.0000,0.0000,0.0000,0.0000,0.0000,0.0000,1612661116.611550,2021-02-06 17:25:16.611553
250.000,-7506.4082,-7965.2451,-8048.1030,-8220.8369,-154151.0625,-154016.4531,-142802.5156,-144616.3438,-0.9260,-0.3460,-0.0140,192.0000,0.0000,0.0000,0.0000,0.0000,0.0000,0.0000,0.0000,0.0000,0.0000,1612661116.615900,2021-02-06 17:25:16.615902
251.000,-7463.0459,-7917.0547,-7882.9683,-7974.7446,-154150.2813,-154015.8906,-142697.3125,-144538.9063,-0.9260,-0.3460,-0.0140,192.0000,0.0000,0.0000,0.0000,0.0000,0.0000,0.0000,0.0000,0.0000,0.0000,1612661116.620250,2021-02-06 17:25:16.620251
252.000,-7431.3291,-7809.2744,-8160.8228,-8315.0947,-154152.2188,-154018.2813,-142951.9688,-144768.9375,-0.9260,-0.3460,-0.0140,192.0000,0.0000,0.0000,0.0000,0.0000,0.0000,0.0000,0.0000,0.0000,0.0000,1612661116.624600,2021-02-06 17:25:16.624599
253.000,-7468.4106,-7846.1997,-8362.5254,-8612.9316,-154151.0781,-154016.9688,-143085.8438,-144867.9375,-0.9260,-0.3460,-0.0140,192.0000,0.0000,0.0000,0.0000,0.0000,0.0000,0.0000,0.0000,0.0000,0.0000,1612661116.628600,2021-02-06 17:25:16.628596
254.000,-7508.1968,-7956.3491,-8110.0171,-8303.8740,-154150.1250,-154015.6094,-142852.2031,-144658.3125,-0.9260,-0.3460,-0.0140,192.0000,0.0000,0.0000,0.0000,0.0000,0.0000,0.0000,0.0000,0.0000,0.0000,1612661116.632590,2021-02-06 17:25:16.632592
255.000,-7477.3286,-7940.0771,-7878.1177,-7975.3481,-154152.4219,-154017.9531,-142686.7656,-144527.0156,-0.9280,-0.3480,-0.0080,192.0000,227.0000,0.0000,245.0000,32.0000,255.0000,192.0000,0.0000,0.0000,0.0000,1612661116.636590,2021-02-06 17:25:16.636589
0.000,-7434.3242,-7823.0879,-8095.8237,-8230.2920,-154152.4688,-154018.3594,-142898.9844,-144723.7656,-0.9280,-0.3480,-0.0080,192.0000,0.0000,0.0000,0.0000,0.0000,0.0000,0.0000,0.0000,0.0000,0.0000,1612661116.640590,2021-02-06 17:25:16.640585
1.000,-7459.2686,-7828.4971,-8357.9873,-8600.4141,-154150.1875,-154016.1406,-143090.7500,-144875.5469,-0.9280,-0.3480,-0.0080,192.0000,0.0000,0.0000,0.0000,0.0000,0.0000,0.0000,0.0000,0.0000,0.0000,1612661116.644580,2021-02-06 17:25:16.644582
2.000,-7507.1460,-7942.5132,-8172.3340,-8386.0391,-154148.9375,-154014.3750,-142904.3594,-144703.0469,-0.9280,-0.3480,-0.0080,192.0000,0.0000,0.0000,0.0000,0.0000,0.0000,0.0000,0.0000,0.0000,0.0000,1612661116.648580,2021-02-06 17:25:16.648578
3.000,-7486.2471,-7954.0913,-7884.8906,-7993.0059,-154149.7188,-154015.0000,-142686.2500,-144523.4063,-0.9280,-0.3480,-0.0080,192.0000,0.0000,0.0000,0.0000,0.0000,0.0000,0.0000,0.0000,0.0000,0.0000,1612661116.652580,2021-02-06 17:25:16.652575
4.000,-7437.1851,-7838.9131,-8029.0371,-8146.6294,-154149.6875,-154015.4219,-142842.0625,-144673.6719,-0.9280,-0.3480,-0.0080,192.0000,0.0000,0.0000,0.0000,0.0000,0.0000,0.0000,0.0000,0.0000,0.0000,1612661116.656570,2021-02-06 17:25:16.656572
5.000,-7452.4067,-7815.9800,-8337.4014,-8566.2832,-154150.6719,-154016.5938,-143082.2031,-144872.0469,-0.9280,-0.3480,-0.0080,192.0000,0.0000,0.0000,0.0000,0.0000,0.0000,0.0000,0.0000,0.0000,0.0000,1612661116.660570,2021-02-06 17:25:16.660568
6.000,-7507.7495,-7929.0801,-8235.4326,-8466.1025,-154152.2500,-154017.7813,-142959.6250,-144751.9219,-0.9280,-0.3480,-0.0080,192.0000,0.0000,0.0000,0.0000,0.0000,0.0000,0.0000,0.0000,0.0000,0.0000,1612661116.664570,2021-02-06 17:25:16.664565
7.000,-7499.0771,-7968.1509,-7913.1431,-8035.8320,-154151.6563,-154016.9688,-142704.6250,-144537.1719,-0.9280,-0.3480,-0.0080,192.0000,0.0000,0.0000,0.0000,0.0000,0.0000,0.0000,0.0000,0.0000,0.0000,1612661116.668560,2021-02-06 17:25:16.668561
8.000,-7445.8799,-7861.8237,-7971.9507,-8076.2661,-154150.1875,-154016.0156,-142791.1250,-144628.2500,-0.9280,-0.3480,-0.0080,192.0000,0.0000,0.0000,0.0000,0.0000,0.0000,0.0000,0.0000,0.0000,0.0000,1612661116.672560,2021-02-06 17:25:16.672558
9.000,-7445.6118,-7807.1289,-8300.0518,-8511.3428,-154149.5313,-154015.6563,-143058.6875,-144855.2813,-0.9260,-0.3540,-0.0040,192.0000,227.0000,16.0000,244.0000,240.0000,255.0000,224.0000,0.0000,0.0000,0.0000,1612661116.676550,2021-02-06 17:25:16.676554
10.000,-7500.4404,-7907.3989,-8284.9199,-8529.0674,-154150.0781,-154015.6250,-143005.4688,-144792.4531,-0.9260,-0.3540,-0.0040,192.0000,0.0000,0.0000,0.0000,0.0000,0.0000,0.0000,0.0000,0.0000,0.0000,1612661116.680550,2021-02-06 17:25:16.680551
11.000,-7506.7212,-7973.2915,-7951.9009,-8093.0078,-154149.9688,-154015.1406,-142731.9375,-144558.5000,-0.9260,-0.3540,-0.0040,192.0000,0.0000,0.0000,0.0000,0.0000,0.0000,0.0000,0.0000,0.0000,0.0000,1612661116.684460,2021-02-06 17:25:16.684464
12.000,-7456.4971,-7886.7905,-7924.8555,-8020.8340,-154150.7188,-154016.2344,-142746.6094,-144587.4688,-0.9260,-0.3540,-0.0040,192.0000,0.0000,0.0000,0.0000,0.0000,0.0000,0.0000,0.0000,0.0000,0.0000,1612661116.688380,2021-02-06 17:25:16.688377
13.000,-7444.3599,-7807.9780,-8253.3594,-8444.1309,-154152.1250,-154018.0625,-143026.4219,-144830.9688,-0.9260,-0.3540,-0.0040,192.0000,0.0000,0.0000,0.0000,0.0000,0.0000,0.0000,0.0000,0.0000,0.0000,1612661116.692290,2021-02-06 17:25:16.692290
14.000,-7492.7739,-7886.1870,-8324.0576,-8576.0068,-154149.6250,-154015.2500,-143044.3594,-144828.2813,-0.9260,-0.3540,-0.0040,192.0000,0.0000,0.0000,0.0000,0.0000,0.0000,0.0000,0.0000,0.0000,0.0000,1612661116.696200,2021-02-06 17:25:16.696203
15.000,-7512.2422,-7972.8892,-8002.5278,-8163.7285,-154148.3281,-154013.6094,-142770.1250,-144589.6094,-0.9260,-0.3540,-0.0040,192.0000,0.0000,0.0000,0.0000,0.0000,0.0000,0.0000,0.0000,0.0000,0.0000,1612661116.700120,2021-02-06 17:25:16.700116
16.000,-7468.6118,-7911.9585,-7891.5737,-7984.1768,-154151.4844,-154016.9063,-142712.9063,-144555.2969,-0.9260,-0.3540,-0.0040,192.0000,0.0000,0.0000,0.0000,0.0000,0.0000,0.0000,0.0000,0.0000,0.0000,1612661116.704030,2021-02-06 17:25:16.704030
17.000,-7444.1143,-7813.1416,-8195.7139,-8364.9170,-154153.3594,-154019.1875,-142983.3906,-144796.1875,-0.9260,-0.3540,-0.0040,192.0000,0.0000,0.0000,0.0000,0.0000,0.0000,0.0000,0.0000,0.0000,0.0000,1612661116.707940,2021-02-06 17:25:16.707942
18.000,-7490.7173,-7871.5913,-8354.7686,-8608.4609,-154155.7813,-154021.5313,-143078.8594,-144861.6094,-0.9260,-0.3540,-0.0040,192.0000,0.0000,0.0000,0.0000,0.0000,0.0000,0.0000,0.0000,0.0000,0.0000,1612661116.711860,2021-02-06 17:25:16.711856
19.000,-7522.0322,-7973.3140,-8067.7056,-8249.8945,-154153.0938,-154018.4375,-142822.4063,-144634.2500,-0.9280,-0.3520,-0.0060,192.0000,227.0000,0.0000,245.0000,0.0000,255.0000,208.0000,0.0000,0.0000,0.0000,1612661116.715770,2021-02-06 17:25:16.715769
20.000,-7479.5640,-7933.2373,-7872.4629,-7967.0557,-154149.8906,-154015.2969,-142689.6875,-144531.9375,-0.9280,-0.3520,-0.0060,192.0000,0.0000,0.0000,0.0000,0.0000,0.0000,0.0000,0.0000,0.0000,0.0000,1612661116.719680,2021-02-06 17:25:16.719682
21.000,-7444.1812,-7821.7915,-8130.7373,-8278.7285,-154151.8438,-154017.8125,-142931.3281,-144752.3281,-0.9280,-0.3520,-0.0060,192.0000,0.0000,0.0000,0.0000,0.0000,0.0000,0.0000,0.0000,0.0000,0.0000,1612661116.723600,2021-02-06 17:25:16.723595
22.000,-7477.9546,-7848.2114,-8358.2783,-8607.8125,-154151.3438,-154017.2656,-143089.3594,-144873.2969,-0.9280,-0.3520,-0.0060,192.0000,0.0000,0.0000,0.0000,0.0000,0.0000,0.0000,0.0000,0.0000,0.0000,1612661116.727510,2021-02-06 17:25:16.727508
23.000,-7518.3218,-7957.7573,-8126.3789,-8329.1318,-154147.3438,-154012.7656,-142868.5625,-144672.7500,-0.9280,-0.3520,-0.0060,192.0000,0.0000,0.0000,0.0000,0.0000,0.0000,0.0000,0.0000,0.0000,0.0000,1612661116.731420,2021-02-06 17:25:16.731421
24.000,-7489.6001,-7950.5820,-7870.8091,-7972.5093,-154147.7344,-154013.1406,-142680.3906,-144520.4531,-0.9280,-0.3520,-0.0060,192.0000,0.0000,0.0000,0.0000,0.0000,0.0000,0.0000,0.0000,0.0000,0.0000,1612661116.735340,2021-02-06 17:25:16.735335
25.000,-7446.0586,-7835.3589,-8065.2021,-8193.8584,-154149.9375,-154015.8594,-142875.4063,-144703.7656,-0.9280,-0.3520,-0.0060,192.0000,0.0000,0.0000,0.0000,0.0000,0.0000,0.0000,0.0000,0.0000,0.0000,1612661116.739670,2021-02-06 17:25:16.739669
26.000,-7470.0645,-7832.7217,-8350.0078,-8588.7920,-154151.4375,-154017.5000,-143089.6250,-144876.8750,-0.9280,-0.3520,-0.0060,192.0000,0.0000,0.0000,0.0000,0.0000,0.0000,0.0000,0.0000,0.0000,0.0000,1612661116.744000,2021-02-06 17:25:16.744004
27.000,-7518.9028,-7945.0840,-8192.6074,-8413.7773,-154148.9844,-154014.6250,-142923.5781,-144720.3438,-0.9280,-0.3520,-0.0060,192.0000,0.0000,0.0000,0.0000,0.0000,0.0000,0.0000,0.0000,0.0000,0.0000,1612661116.748340,2021-02-06 17:25:16.748339
28.000,-7499.4121,-7963.9932,-7887.2373,-8000.7397,-154146.2500,-154011.6875,-142686.5313,-144522.8438,-0.9280,-0.3520,-0.0060,192.0000,0.0000,0.0000,0.0000,0.0000,0.0000,0.0000,0.0000,0.0000,0.0000,1612661116.752670,2021-02-06 17:25:16.752673
29.000,-7451.7139,-7854.4922,-8004.1372,-8116.6333,-154149.0625,-154014.9375,-142820.7344,-144655.4375,-0.9320,-0.3500,-0.0040,192.0000,226.0000,224.0000,245.0000,16.0000,255.0000,224.0000,0.0000,0.0000,0.0000,1612661116.757010,2021-02-06 17:25:16.757008
30.000,-7461.6602,-7819.8472,-8323.3867,-8546.3906,-154149.9688,-154015.8594,-143073.8281,-144866.6563,-0.9320,-0.3500,-0.0040,192.0000,0.0000,0.0000,0.0000,0.0000,0.0000,0.0000,0.0000,0.0000,0.0000,1612661116.761340,2021-02-06 17:25:16.761343
31.000,-7513.4717,-7925.0791,-8250.0508,-8486.3984,-154147.3438,-154012.8281,-142972.5313,-144763.2813,-0.9320,-0.3500,-0.0040,192.0000,0.0000,0.0000,0.0000,0.0000,0.0000,0.0000,0.0000,0.0000,0.0000,1612661116.765680,2021-02-06 17:25:16.765677
32.000,-7508.8672,-7972.8892,-7920.0498,-8049.1313,-154145.4219,-154010.7188,-142706.9219,-144537.9063,-0.9320,-0.3500,-0.0040,192.0000,0.0000,0.0000,0.0000,0.0000,0.0000,0.0000,0.0000,0.0000,0.0000,1612661116.770010,2021-02-06 17:25:16.770012
33.000,-7458.6426,-7875.3911,-7949.6211,-8049.9805,-154147.2656,-154012.9219,-142769.4844,-144608.6563,-0.9320,-0.3500,-0.0040,192.0000,0.0000,0.0000,0.0000,0.0000,0.0000,0.0000,0.0000,0.0000,0.0000,1612661116.774350,2021-02-06 17:25:16.774347
34.000,-7456.8994,-7814.0801,-8283.8691,-8487.4268,-154150.5156,-154016.5000,-143046.9063,-144846.8125,-0.9320,-0.3500,-0.0040,192.0000,0.0000,0.0000,0.0000,0.0000,0.0000,0.0000,0.0000,0.0000,0.0000,1612661116.778680,2021-02-06 17:25:16.778681
35.000,-7511.3032,-7908.3374,-8303.2930,-8550.4805,-154151.4844,-154017.1094,-143021.8125,-144807.8281,-0.9320,-0.3500,-0.0040,192.0000,0.0000,0.0000,0.0000,0.0000,0.0000,0.0000,0.0000,0.0000,0.0000,1612661116.783020,2021-02-06 17:25:16.783016
36.000,-7522.0547,-7981.9194,-7972.1069,-8119.7402,-154150.3594,-154015.6563,-142745.3906,-144569.6719,-0.9320,-0.3500,-0.0040,192.0000,0.0000,0.0000,0.0000,0.0000,0.0000,0.0000,0.0000,0.0000,0.0000,1612661116.787350,2021-02-06 17:25:16.787351
37.000,-7471.3608,-7901.8330,-7911.0869,-8004.1372,-154149.6250,-154015.1875,-142730.5469,-144572.5156,-0.9320,-0.3500,-0.0040,192.0000,0.0000,0.0000,0.0000,0.0000,0.0000,0.0000,0.0000,0.0000,0.0000,1612661116.791690,2021-02-06 17:25:16.791686
38.000,-7453.5464,-7813.8120,-8232.6387,-8414.4033,-154150.5469,-154016.5000,-143008.5625,-144816.4063,-0.9300,-0.3500,-0.0080,192.0000,226.0000,240.0000,245.0000,16.0000,255.0000,192.0000,0.0000,0.0000,0.0000,1612661116.795000,2021-02-06 17:25:16.794997
39.000,-7504.0391,-7887.6396,-8340.3516,-8592.7705,-154152.5313,-154018.2031,-143058.5781,-144841.8906,-0.9300,-0.3500,-0.0080,192.0000,0.0000,0.0000,0.0000,0.0000,0.0000,0.0000,0.0000,0.0000,0.0000,1612661116.798310,2021-02-06 17:25:16.798308
40.000,-7528.1118,-7980.6230,-8029.7300,-8197.5469,-154150.8125,-154016.0469,-142788.7969,-144605.7969,-0.9300,-0.3500,-0.0080,192.0000,0.0000,0.0000,0.0000,0.0000,0.0000,0.0000,0.0000,0.0000,0.0000,1612661116.801620,2021-02-06 17:25:16.801619
41.000,-7481.7319,-7924.3188,-7883.8848,-7975.3481,-154148.8281,-154014.3281,-142699.9219,-144542.8438,-0.9300,-0.3500,-0.0080,192.0000,0.0000,0.0000,0.0000,0.0000,0.0000,0.0000,0.0000,0.0000,0.0000,1612661116.804930,2021-02-06 17:25:16.804930
42.000,-7453.5913,-7820.6069,-8174.5469,-8334.3174,-154151.6563,-154017.5938,-142962.7813,-144778.9531,-0.9300,-0.3500,-0.0080,192.0000,0.0000,0.0000,0.0000,0.0000,0.0000,0.0000,0.0000,0.0000,0.0000,1612661116.808240,2021-02-06 17:25:16.808241
43.000,-7494.8750,-7866.6289,-8360.4238,-8611.7920,-154152.3125,-154017.9688,-143081.8438,-144864.8281,-0.9300,-0.3500,-0.0080,192.0000,0.0000,0.0000,0.0000,0.0000,0.0000,0.0000,0.0000,0.0000,0.0000,1612661116.811550,2021-02-06 17:25:16.811553
44.000,-7531.0625,-7973.4258,-8093.3877,-8281.6787,-154150.5469,-154015.8281,-142838.0625,-144647.1250,-0.9300,-0.3500,-0.0080,192.0000,0.0000,0.0000,0.0000,0.0000,0.0000,0.0000,0.0000,0.0000,0.0000,1612661116.814860,2021-02-06 17:25:16.814864
45.000,-7493.0420,-7945.1060,-7873.9829,-7968.7319,-154148.3750,-154013.7656,-142683.1094,-144524.8594,-0.9300,-0.3500,-0.0080,192.0000,0.0000,0.0000,0.0000,0.0000,0.0000,0.0000,0.0000,0.0000,0.0000,1612661116.818180,2021-02-06 17:25:16.818175
46.000,-7452.5405,-7829.4136,-8108.9668,-8247.4580,-154148.8438,-154014.7188,-142907.5000,-144731.5000,-0.9300,-0.3500,-0.0080,192.0000,0.0000,0.0000,0.0000,0.0000,0.0000,0.0000,0.0000,0.0000,0.0000,1612661116.821490,2021-02-06 17:25:16.821486
47.000,-7484.3921,-7846.5571,-8361.8994,-8606.0029,-154150.8594,-154016.6406,-143089.7344,-144874.7500,-0.9300,-0.3500,-0.0080,192.0000,0.0000,0.0000,0.0000,0.0000,0.0000,0.0000,0.0000,0.0000,0.0000,1612661116.824800,2021-02-06 17:25:16.824797
48.000,-7529.3862,-7959.1431,-8157.5815,-8365.4307,-154148.6719,-154013.9531,-142889.0625,-144690.4531,-0.9300,-0.3460,-0.0100,192.0000,226.0000,240.0000,245.0000,48.0000,255.0000,176.0000,0.0000,0.0000,0.0000,1612661116.828110,2021-02-06 17:25:16.828108
49.000,-7499.5020,-7957.3774,-7877.0225,-7980.6899,-154143.6406,-154008.8594,-142676.7031,-144515.7188,-0.9300,-0.3460,-0.0100,192.0000,0.0000,0.0000,0.0000,0.0000,0.0000,0.0000,0.0000,0.0000,0.0000,1612661116.831420,2021-02-06 17:25:16.831419
50.000,-7454.3960,-7843.6963,-8044.6162,-8164.6675,-154146.7188,-154012.3906,-142851.1406,-144682.0781,-0.9300,-0.3460,-0.0100,192.0000,0.0000,0.0000,0.0000,0.0000,0.0000,0.0000,0.0000,0.0000,0.0000,1612661116.834730,2021-02-06 17:25:16.834730
51.000,-7474.8477,-7830.5313,-8346.7002,-8577.9512,-154149.8281,-154015.6250,-143083.5469,-144872.7656,-0.9300,-0.3460,-0.0100,192.0000,0.0000,0.0000,0.0000,0.0000,0.0000,0.0000,0.0000,0.0000,0.0000,1612661116.838040,2021-02-06 17:25:16.838042
52.000,-7524.8037,-7940.8818,-8219.7871,-8444.9131,-154147.2188,-154012.5938,-142940.5000,-144734.9531,-0.9300,-0.3460,-0.0100,192.0000,0.0000,0.0000,0.0000,0.0000,0.0000,0.0000,0.0000,0.0000,0.0000,1612661116.841350,2021-02-06 17:25:16.841353
53.000,-7509.1353,-7969.4248,-7901.4980,-8018.2412,-154143.4531,-154008.5938,-142689.7500,-144524.2500,-0.9300,-0.3460,-0.0100,192.0000,0.0000,0.0000,0.0000,0.0000,0.0000,0.0000,0.0000,0.0000,0.0000,1612661116.844660,2021-02-06 17:25:16.844664
54.000,-7457.7485,-7861.0190,-7984.4673,-8089.5430,-154143.7188,-154009.3906,-142795.9219,-144632.4531,-0.9300,-0.3460,-0.0100,192.0000,0.0000,0.0000,0.0000,0.0000,0.0000,0.0000,0.0000,0.0000,0.0000,1612661116.849150,2021-02-06 17:25:16.849153
